Z-Pos[um]|R[MOhm]|I[pA]
59,019    106,491    1409
59,009    106,801    1404
58,999    106,486    1409
58,989    106,625    1407
58,979    106,431    1409
58,969    106,477    1409
58,959    106,261    1412
58,949    106,371    1410
58,939    106,500    1408
58,929    106,486    1409
58,919    106,422    1409
58,909    106,417    1410
58,899    106,307    1411
58,889    106,630    1407
58,879    106,565    1408
58,869    106,417    1410
58,859    106,477    1409
58,849    106,270    1411
58,839    106,431    1409
58,829    106,597    1407
58,819    106,073    1414
58,809    106,509    1408
58,799    106,454    1409
58,789    106,367    1410
58,779    106,256    1412
58,769    106,265    1412
58,759    106,339    1411
58,749    106,546    1408
58,739    106,450    1409
58,729    106,450    1409
58,719    106,265    1412
58,709    106,288    1411
58,699    106,408    1410
58,689    106,422    1409
58,679    106,565    1408
58,669    106,210    1412
58,659    106,160    1413
58,649    106,764    1405
58,639    106,820    1404
58,629    106,639    1407
58,619    106,625    1407
58,609    106,496    1409
58,599    106,330    1411
58,589    106,468    1409
58,579    106,238    1412
58,569    106,137    1413
58,559    106,551    1408
58,549    106,325    1411
58,539    106,500    1408
58,529    106,206    1412
58,519    106,197    1412
58,509    106,556    1408
58,499    106,261    1412
58,489    106,316    1411
58,479    106,357    1410
58,469    106,275    1411
58,459    106,496    1409
58,449    106,151    1413
58,439    106,321    1411
58,429    106,215    1412
58,419    106,311    1411
58,409    106,565    1408
58,399    106,275    1411
58,389    106,247    1412
58,379    106,445    1409
58,369    106,183    1413
58,359    106,519    1408
58,349    106,611    1407
58,339    106,265    1412
58,329    106,454    1409
58,319    106,459    1409
58,309    106,454    1409
58,299    106,288    1411
58,289    106,344    1411
58,279    106,514    1408
58,269    106,224    1412
58,259    106,183    1413
58,249    106,367    1410
58,239    106,316    1411
58,229    106,560    1408
58,219    106,229    1412
58,209    106,215    1412
58,199    106,316    1411
58,189    106,325    1411
58,179    106,394    1410
58,169    106,486    1409
58,159    106,183    1413
58,149    106,505    1408
58,139    106,367    1410
58,129    106,311    1411
58,119    106,403    1410
58,109    106,096    1414
58,099    106,334    1411
58,089    106,792    1405
58,079    106,344    1411
58,069    106,616    1407
58,059    106,357    1410
58,049    106,137    1413
58,039    106,491    1409
58,029    106,385    1410
58,019    106,151    1413
58,009    106,261    1412
57,999    106,265    1412
57,989    106,385    1410
57,979    106,477    1409
57,969    106,137    1413
57,959    106,399    1410
57,949    106,344    1411
57,939    106,325    1411
57,929    106,417    1410
57,919    106,764    1405
57,909    106,187    1413
57,899    106,491    1409
57,889    106,169    1413
57,879    106,219    1412
57,869    106,183    1413
57,859    106,219    1412
57,849    106,722    1406
57,839    106,385    1410
57,829    106,298    1411
57,819    106,219    1412
57,809    106,293    1411
57,799    106,616    1407
57,789    106,293    1411
57,779    106,293    1411
57,769    106,302    1411
57,759    106,422    1409
57,749    106,565    1408
57,739    106,284    1411
57,729    106,242    1412
57,719    106,252    1412
57,709    106,344    1411
57,699    106,593    1407
57,689    106,339    1411
57,679    106,344    1411
57,669    106,445    1409
57,659    106,523    1408
57,649    106,137    1413
57,639    106,344    1411
57,629    106,325    1411
57,619    106,233    1412
57,609    106,607    1407
57,599    106,206    1412
57,589    106,270    1411
57,579    106,293    1411
57,569    106,376    1410
57,559    106,607    1407
57,549    106,293    1411
57,539    106,357    1410
57,529    106,344    1411
57,519    106,265    1412
57,509    106,394    1410
57,499    106,265    1412
57,489    106,206    1412
57,479    106,380    1410
57,469    106,426    1409
57,459    106,523    1408
57,449    106,450    1409
57,439    106,339    1411
57,429    106,593    1407
57,419    106,848    1404
57,409    106,829    1404
57,399    106,736    1405
57,389    106,987    1402
57,379    107,267    1398
57,369    106,959    1402
57,359    106,321    1411
57,349    106,440    1409
57,339    106,330    1411
57,329    106,533    1408
57,319    106,593    1407
57,309    106,219    1412
57,299    106,422    1409
57,289    106,528    1408
57,279    106,298    1411
57,269    106,486    1409
57,259    106,528    1408
57,249    106,380    1410
57,239    106,607    1407
57,229    106,523    1408
57,219    106,690    1406
57,209    106,899    1403
57,199    106,616    1407
57,189    106,954    1402
57,179    106,685    1406
57,169    106,422    1409
57,159    106,648    1406
57,149    107,234    1399
57,139    106,931    1403
57,129    106,769    1405
57,119    106,704    1406
57,109    107,450    1396
57,099    107,188    1399
57,089    106,773    1405
57,079    108,422    1383
57,069    113,196    1325
57,059    107,601    1394
57,049    123,268    1217
57,039    109,076    1375
57,029    -8474,480    -18
57,019    108,179    1387
57,009    280,420    535
56,999    122,141    1228
