Z-Pos[um]|R[MOhm]|I[pA]
59,011    106,339    1411
59,001    106,968    1402
58,991    106,307    1411
58,981    106,210    1412
58,971    106,556    1408
58,961    106,367    1410
58,951    106,390    1410
58,941    106,413    1410
58,931    106,229    1412
58,921    106,463    1409
58,911    106,445    1409
58,901    106,284    1411
58,891    106,390    1410
58,881    106,224    1412
58,871    106,376    1410
58,861    106,422    1409
58,851    106,041    1415
58,841    106,417    1410
58,831    106,371    1410
58,821    106,229    1412
58,811    106,371    1410
58,801    106,491    1409
58,791    106,574    1407
58,781    106,968    1402
58,771    107,043    1401
58,761    106,219    1412
58,751    106,187    1413
58,741    106,537    1408
58,731    106,298    1411
58,721    106,293    1411
58,711    106,164    1413
58,701    106,082    1414
58,691    106,450    1409
58,681    106,233    1412
58,671    106,252    1412
58,661    106,422    1409
58,651    106,275    1411
58,641    106,440    1409
58,631    106,137    1413
58,621    106,210    1412
58,611    106,334    1411
58,601    106,141    1413
58,591    106,408    1410
58,581    106,334    1411
58,571    106,169    1413
58,561    106,417    1410
58,551    106,197    1412
58,541    106,486    1409
58,531    106,334    1411
58,521    106,169    1413
58,511    106,440    1409
58,501    106,408    1410
58,491    106,380    1410
58,481    106,551    1408
58,471    106,054    1414
58,461    106,454    1409
58,451    106,284    1411
58,441    106,238    1412
58,431    106,394    1410
58,421    106,151    1413
58,411    106,353    1410
58,401    106,357    1410
58,391    106,482    1409
58,381    106,824    1404
58,371    106,722    1406
58,361    106,736    1405
58,351    106,593    1407
58,341    106,482    1409
58,331    106,123    1413
58,321    106,477    1409
58,311    106,210    1412
58,301    106,417    1410
58,291    106,509    1408
58,281    107,015    1402
58,271    106,482    1409
58,261    106,408    1410
58,251    106,620    1407
58,241    106,431    1409
58,231    106,491    1409
58,221    106,602    1407
58,211    106,302    1411
58,201    106,197    1412
58,191    106,219    1412
58,181    106,316    1411
58,171    106,482    1409
58,161    106,206    1412
58,151    106,210    1412
58,141    106,496    1409
58,131    106,247    1412
58,121    106,496    1409
58,111    106,514    1408
58,101    106,077    1414
58,091    106,399    1410
58,081    106,376    1410
58,071    106,408    1410
58,061    106,806    1404
58,051    106,542    1408
58,041    106,690    1406
58,031    107,104    1401
58,021    106,964    1402
58,011    106,838    1404
58,001    106,671    1406
57,991    106,523    1408
57,981    106,445    1409
57,971    106,339    1411
57,961    106,302    1411
57,951    106,348    1410
57,941    106,339    1411
57,931    106,630    1407
57,921    106,123    1413
57,911    106,224    1412
57,901    106,450    1409
57,891    106,334    1411
57,881    106,491    1409
57,871    106,302    1411
57,861    106,219    1412
57,851    106,482    1409
57,841    106,284    1411
57,831    106,445    1409
57,821    106,087    1414
57,811    106,224    1412
57,801    106,417    1410
57,791    106,362    1410
57,781    106,298    1411
57,771    106,620    1407
57,761    106,537    1408
57,751    106,551    1408
57,741    106,681    1406
57,731    106,426    1409
57,721    106,459    1409
57,711    106,583    1407
57,701    106,302    1411
57,691    106,473    1409
57,681    106,233    1412
57,671    106,215    1412
57,661    106,473    1409
57,651    106,325    1411
57,641    106,298    1411
57,631    106,339    1411
57,621    106,151    1413
57,611    106,445    1409
57,601    106,311    1411
57,591    106,105    1414
57,581    106,353    1410
57,571    106,380    1410
57,561    106,597    1407
57,551    106,459    1409
57,541    106,197    1412
57,531    106,436    1409
57,521    106,330    1411
57,511    106,307    1411
57,501    106,519    1408
57,491    106,224    1412
57,481    106,445    1409
57,471    106,330    1411
57,461    106,417    1410
57,451    106,514    1408
57,441    106,206    1412
57,431    106,482    1409
57,421    106,371    1410
57,411    106,399    1410
57,401    106,390    1410
57,391    106,362    1410
57,381    106,394    1410
57,371    106,265    1412
57,361    106,417    1410
57,351    106,565    1408
57,341    106,321    1411
57,331    106,519    1408
57,321    106,551    1408
57,311    106,265    1412
57,301    106,450    1409
57,291    106,302    1411
57,281    106,436    1409
57,271    106,630    1407
57,261    106,477    1409
57,251    106,583    1407
57,241    106,496    1409
57,231    106,206    1412
57,221    106,727    1405
57,211    106,505    1408
57,201    106,509    1408
57,191    106,463    1409
57,181    106,454    1409
57,171    106,875    1404
57,161    106,362    1410
57,151    106,542    1408
57,141    106,829    1404
57,131    107,015    1402
57,121    106,750    1405
57,111    106,787    1405
57,101    106,992    1402
57,091    107,006    1402
57,081    107,183    1399
57,071    107,431    1396
57,061    107,723    1392
57,051    107,827    1391
57,041    108,202    1386
57,031    114,755    1307
57,021    118,851    1262
