Z-Pos[um]|R[MOhm]|I[pA]
59,021    106,242    1412
59,011    106,759    1405
59,001    106,298    1411
58,991    106,376    1410
58,981    106,279    1411
58,971    106,128    1413
58,961    106,390    1410
58,951    106,463    1409
58,941    106,436    1409
58,931    106,385    1410
58,921    106,155    1413
58,911    106,431    1409
58,901    106,229    1412
58,891    106,436    1409
58,881    106,325    1411
58,871    106,119    1414
58,861    106,413    1410
58,851    106,238    1412
58,841    106,496    1409
58,831    106,376    1410
58,821    106,187    1413
58,811    106,330    1411
58,801    106,894    1403
58,791    106,556    1408
58,781    106,741    1405
58,771    107,066    1401
58,761    107,043    1401
58,751    106,945    1403
58,741    70,235    2136
58,731    106,330    1411
58,721    106,252    1412
58,711    106,362    1410
58,701    106,496    1409
58,691    106,114    1414
58,681    106,270    1411
58,671    106,256    1412
58,661    106,353    1410
58,651    106,514    1408
58,641    106,064    1414
58,631    106,238    1412
58,621    106,371    1410
58,611    106,353    1410
58,601    106,500    1408
58,591    106,114    1414
58,581    106,307    1411
58,571    106,546    1408
58,561    106,293    1411
58,551    106,224    1412
58,541    106,146    1413
58,531    106,215    1412
58,521    106,422    1409
58,511    106,146    1413
58,501    106,270    1411
58,491    106,041    1415
58,481    106,178    1413
58,471    106,556    1408
58,461    106,137    1413
58,451    106,316    1411
58,441    106,128    1413
58,431    106,275    1411
58,421    106,602    1407
58,411    106,316    1411
58,401    106,233    1412
58,391    106,344    1411
58,381    106,293    1411
58,371    106,440    1409
58,361    106,519    1408
58,351    106,560    1408
58,341    106,597    1407
58,331    106,454    1409
58,321    106,514    1408
58,311    106,551    1408
58,301    106,408    1410
58,291    106,459    1409
58,281    106,690    1406
58,271    106,607    1407
58,261    106,390    1410
58,251    106,542    1408
58,241    106,704    1406
58,231    106,390    1410
58,221    106,270    1411
58,211    106,160    1413
58,201    106,307    1411
58,191    106,597    1407
58,181    106,219    1412
58,171    106,169    1413
58,161    106,151    1413
58,151    106,344    1411
58,141    106,570    1408
58,131    106,357    1410
58,121    106,256    1412
58,111    106,376    1410
58,101    106,155    1413
58,091    106,579    1407
58,081    106,408    1410
58,071    106,073    1414
58,061    106,348    1410
58,051    106,302    1411
58,041    106,302    1411
58,031    106,279    1411
58,021    106,036    1415
58,011    106,413    1410
58,001    106,431    1409
57,991    106,302    1411
57,981    106,473    1409
57,971    106,050    1414
57,961    106,298    1411
57,951    106,307    1411
57,941    106,229    1412
57,931    106,348    1410
57,921    106,206    1412
57,911    106,385    1410
57,901    106,137    1413
57,891    106,463    1409
57,881    106,174    1413
57,871    106,399    1410
57,861    106,496    1409
57,851    106,233    1412
57,841    106,357    1410
57,831    106,169    1413
57,821    106,302    1411
57,811    106,546    1408
57,801    106,252    1412
57,791    106,394    1410
57,781    106,247    1412
57,771    106,574    1407
57,761    106,903    1403
57,751    106,848    1404
57,741    106,662    1406
57,731    106,648    1406
57,721    107,020    1402
57,711    106,316    1411
57,701    106,151    1413
57,691    106,302    1411
57,681    106,607    1407
57,671    106,252    1412
57,661    106,357    1410
57,651    106,128    1413
57,641    106,982    1402
57,631    106,463    1409
57,621    106,302    1411
57,611    106,210    1412
57,601    106,417    1410
57,591    106,197    1412
57,581    106,602    1407
57,571    106,325    1411
57,561    106,302    1411
57,551    106,311    1411
57,541    106,491    1409
57,531    106,242    1412
57,521    106,616    1407
57,511    106,265    1412
57,501    106,215    1412
57,491    106,810    1404
57,481    106,399    1410
57,471    106,422    1409
57,461    106,279    1411
57,451    106,330    1411
57,441    106,482    1409
57,431    106,417    1410
57,421    106,482    1409
57,411    106,233    1412
57,401    106,371    1410
57,391    106,546    1408
57,381    106,426    1409
57,371    106,164    1413
57,361    106,311    1411
57,351    106,316    1411
57,341    106,565    1408
57,331    106,653    1406
57,321    106,238    1412
57,311    106,560    1408
57,301    106,436    1409
57,291    106,408    1410
57,281    106,570    1408
57,271    106,201    1412
57,261    106,560    1408
57,251    106,339    1411
57,241    106,560    1408
57,231    106,514    1408
57,221    106,307    1411
57,211    106,473    1409
57,201    106,431    1409
57,191    106,732    1405
57,181    106,546    1408
57,171    106,436    1409
57,161    106,607    1407
57,151    106,620    1407
57,141    106,662    1406
57,131    106,875    1404
57,121    106,505    1408
57,111    106,625    1407
57,101    106,954    1402
57,091    106,727    1405
57,081    106,982    1402
57,071    107,314    1398
57,061    107,197    1399
57,051    107,686    1393
57,041    107,638    1394
57,031    108,830    1378
57,021    108,513    1382
57,011    108,864    1378
57,001    122,196    1228
