Z-Pos[um]|R[MOhm]|I[pA]
59,051    106,353    1410
59,041    106,718    1406
59,031    106,353    1410
59,021    106,045    1414
59,011    106,371    1410
59,001    106,247    1412
58,991    106,132    1413
58,981    106,348    1410
58,971    106,068    1414
58,961    106,519    1408
58,951    106,261    1412
58,941    106,261    1412
58,931    106,316    1411
58,921    106,013    1415
58,911    106,473    1409
58,901    106,376    1410
58,891    106,206    1412
58,881    106,334    1411
58,871    106,362    1410
58,861    106,100    1414
58,851    106,431    1409
58,841    106,137    1413
58,831    106,288    1411
58,821    106,344    1411
58,811    106,275    1411
58,801    106,422    1409
58,791    106,233    1412
58,781    106,330    1411
58,771    106,339    1411
58,761    106,353    1410
58,751    106,454    1409
58,741    106,252    1412
58,731    106,238    1412
58,721    106,316    1411
58,711    106,311    1411
58,701    106,394    1410
58,691    106,252    1412
58,681    106,206    1412
58,671    106,413    1410
58,661    106,201    1412
58,651    106,542    1408
58,641    106,298    1411
58,631    106,210    1412
58,621    106,302    1411
58,611    106,311    1411
58,601    106,422    1409
58,591    106,371    1410
58,581    106,197    1412
58,571    106,330    1411
58,561    106,229    1412
58,551    106,509    1408
58,541    106,565    1408
58,531    106,174    1413
58,521    106,261    1412
58,511    106,307    1411
58,501    106,284    1411
58,491    106,403    1410
58,481    106,146    1413
58,471    106,422    1409
58,461    106,523    1408
58,451    106,192    1413
58,441    106,357    1410
58,431    106,215    1412
58,421    106,403    1410
58,411    106,344    1411
58,401    106,197    1412
58,391    106,353    1410
58,381    106,146    1413
58,371    106,339    1411
58,361    106,732    1405
58,351    106,224    1412
58,341    106,385    1410
58,331    106,792    1405
58,321    106,894    1403
58,311    106,745    1405
58,301    106,353    1410
58,291    106,344    1411
58,281    106,100    1414
58,271    106,450    1409
58,261    106,091    1414
58,251    106,256    1412
58,241    106,330    1411
58,231    106,215    1412
58,221    106,473    1409
58,211    106,206    1412
58,201    106,247    1412
58,191    106,265    1412
58,181    106,330    1411
58,171    106,288    1411
58,161    106,284    1411
58,151    106,279    1411
58,141    106,362    1410
58,131    106,164    1413
58,121    106,403    1410
58,111    106,247    1412
58,101    106,187    1413
58,091    106,583    1407
58,081    106,367    1410
58,071    106,431    1409
58,061    106,376    1410
58,051    106,045    1414
58,041    106,403    1410
58,031    106,542    1408
58,021    106,583    1407
58,011    106,574    1407
58,001    106,284    1411
57,991    106,426    1409
57,981    106,755    1405
57,971    106,616    1407
57,961    106,119    1414
57,951    106,385    1410
57,941    106,408    1410
57,931    106,394    1410
57,921    106,385    1410
57,911    106,100    1414
57,901    106,307    1411
57,891    106,367    1410
57,881    106,376    1410
57,871    106,348    1410
57,861    106,073    1414
57,851    106,408    1410
57,841    106,477    1409
57,831    106,275    1411
57,821    106,279    1411
57,811    106,146    1413
57,801    106,413    1410
57,791    106,454    1409
57,781    106,302    1411
57,771    106,426    1409
57,761    106,187    1413
57,751    106,270    1411
57,741    106,459    1409
57,731    106,704    1406
57,721    106,671    1406
57,711    106,889    1403
57,701    106,880    1403
57,691    106,718    1406
57,681    106,560    1408
57,671    106,482    1409
57,661    106,210    1412
57,651    106,565    1408
57,641    106,486    1409
57,631    106,183    1413
57,621    106,459    1409
57,611    106,463    1409
57,601    106,556    1408
57,591    106,376    1410
57,581    106,132    1413
57,571    106,357    1410
57,561    106,224    1412
57,551    106,579    1407
57,541    106,537    1408
57,531    106,293    1411
57,521    106,376    1410
57,511    106,390    1410
57,501    106,477    1409
57,491    106,385    1410
57,481    106,132    1413
57,471    106,298    1411
57,461    106,473    1409
57,451    106,371    1410
57,441    106,486    1409
57,431    106,187    1413
57,421    106,238    1412
57,411    106,509    1408
57,401    106,242    1412
57,391    106,445    1409
57,381    106,261    1412
57,371    106,390    1410
57,361    106,514    1408
57,351    106,431    1409
57,341    106,403    1410
57,331    106,238    1412
57,321    106,500    1408
57,311    106,787    1405
57,301    106,394    1410
57,291    106,219    1412
57,281    106,436    1409
57,271    106,408    1410
57,261    106,473    1409
57,251    106,528    1408
57,241    106,330    1411
57,231    106,357    1410
57,221    106,773    1405
57,211    106,824    1404
57,201    106,597    1407
57,191    106,353    1410
57,181    106,927    1403
57,171    106,875    1404
57,161    106,722    1406
57,151    107,020    1402
57,141    106,875    1404
57,131    107,728    1392
57,121    107,076    1401
57,111    106,694    1406
57,101    107,197    1399
57,091    110,484    1358
57,081    106,820    1404
57,071    107,993    1389
57,061    124,209    1208
57,051    113,936    1317
57,041    111,821    1341
