Z-Pos[um]|R[MOhm]|I[pA]
59,047    106,321    1411
59,037    106,987    1402
59,027    106,146    1413
59,017    106,417    1410
59,007    106,380    1410
58,997    106,284    1411
58,987    106,353    1410
58,977    106,068    1414
58,967    106,348    1410
58,957    106,367    1410
58,947    106,325    1411
58,937    106,385    1410
58,927    106,073    1414
58,917    106,394    1410
58,907    106,316    1411
58,897    106,367    1410
58,887    106,334    1411
58,877    106,123    1413
58,867    106,128    1413
58,857    106,403    1410
58,847    106,219    1412
58,837    106,353    1410
58,827    106,119    1414
58,817    106,265    1412
58,807    106,399    1410
58,797    106,316    1411
58,787    106,155    1413
58,777    106,339    1411
58,767    106,233    1412
58,757    106,399    1410
58,747    106,298    1411
58,737    105,972    1415
58,727    106,436    1409
58,717    106,519    1408
58,707    106,459    1409
58,697    106,307    1411
58,687    106,210    1412
58,677    106,408    1410
58,667    107,099    1401
58,657    106,815    1404
58,647    106,616    1407
58,637    106,353    1410
58,627    106,468    1409
58,617    106,426    1409
58,607    106,653    1406
58,597    106,229    1412
58,587    106,426    1409
58,577    106,169    1413
58,567    106,334    1411
58,557    106,141    1413
58,547    106,119    1414
58,537    106,468    1409
58,527    106,284    1411
58,517    106,298    1411
58,507    106,242    1412
58,497    106,192    1413
58,487    106,482    1409
58,477    106,284    1411
58,467    106,279    1411
58,457    106,284    1411
58,447    106,183    1413
58,437    106,519    1408
58,427    106,215    1412
58,417    106,233    1412
58,407    106,755    1405
58,397    106,224    1412
58,387    106,390    1410
58,377    106,288    1411
58,367    106,132    1413
58,357    106,344    1411
58,347    106,270    1411
58,337    106,399    1410
58,327    106,380    1410
58,317    106,330    1411
58,307    106,815    1404
58,297    106,500    1408
58,287    106,265    1412
58,277    106,542    1408
58,267    106,750    1405
58,257    106,996    1402
58,247    106,773    1405
58,237    106,371    1410
58,227    106,316    1411
58,217    106,219    1412
58,207    106,514    1408
58,197    106,348    1410
58,187    106,293    1411
58,177    106,288    1411
58,167    106,325    1411
58,157    106,820    1404
58,147    106,866    1404
58,137    106,500    1408
58,127    106,298    1411
58,117    106,625    1407
58,107    106,224    1412
58,097    106,288    1411
58,087    106,187    1413
58,077    106,362    1410
58,067    106,514    1408
58,057    106,440    1409
58,047    106,210    1412
58,037    106,261    1412
58,027    106,252    1412
58,017    106,459    1409
58,007    106,247    1412
57,997    106,160    1413
57,987    106,325    1411
57,977    106,128    1413
57,967    106,426    1409
57,957    106,436    1409
57,947    106,068    1414
57,937    106,376    1410
57,927    106,270    1411
57,917    106,528    1408
57,907    106,390    1410
57,897    106,050    1414
57,887    106,473    1409
57,877    106,417    1410
57,867    106,634    1407
57,857    106,371    1410
57,847    106,178    1413
57,837    106,321    1411
57,827    106,376    1410
57,817    106,390    1410
57,807    106,321    1411
57,797    106,109    1414
57,787    106,265    1412
57,777    106,676    1406
57,767    106,390    1410
57,757    106,385    1410
57,747    106,155    1413
57,737    106,321    1411
57,727    106,431    1409
57,717    106,293    1411
57,707    106,551    1408
57,697    106,169    1413
57,687    106,146    1413
57,677    106,509    1408
57,667    106,238    1412
57,657    106,440    1409
57,647    106,270    1411
57,637    106,219    1412
57,627    106,473    1409
57,617    106,192    1413
57,607    106,533    1408
57,597    106,164    1413
57,587    106,187    1413
57,577    106,408    1410
57,567    106,298    1411
57,557    106,362    1410
57,547    106,224    1412
57,537    106,399    1410
57,527    106,570    1408
57,517    106,210    1412
57,507    106,155    1413
57,497    106,454    1409
57,487    106,201    1412
57,477    106,667    1406
57,467    106,625    1407
57,457    106,482    1409
57,447    106,755    1405
57,437    106,843    1404
57,427    106,583    1407
57,417    106,473    1409
57,407    106,482    1409
57,397    106,344    1411
57,387    106,574    1407
57,377    106,408    1410
57,367    106,334    1411
57,357    106,279    1411
57,347    106,316    1411
57,337    106,597    1407
57,327    106,523    1408
57,317    106,473    1409
57,307    106,639    1407
57,297    106,450    1409
57,287    106,546    1408
57,277    106,570    1408
57,267    106,160    1413
57,257    106,570    1408
57,247    106,634    1407
57,237    106,546    1408
57,227    106,528    1408
57,217    106,298    1411
57,207    106,593    1407
57,197    106,546    1408
57,187    106,542    1408
57,177    106,509    1408
57,167    106,528    1408
57,157    106,611    1407
57,147    106,764    1405
57,137    106,996    1402
57,127    107,211    1399
57,117    106,931    1403
57,107    106,871    1404
57,097    107,122    1400
57,087    107,090    1401
57,077    107,141    1400
57,067    107,974    1389
57,057    107,305    1398
57,047    107,535    1395
57,037    134,391    1116
57,027    294,182    510
57,017    109,631    1368
