Z-Pos[um]|R[MOhm]|I[pA]
59,021    106,546    1408
59,011    107,155    1400
59,001    106,607    1407
58,991    106,288    1411
58,981    106,523    1408
58,971    106,422    1409
58,961    106,367    1410
58,951    106,463    1409
58,941    106,229    1412
58,931    106,468    1409
58,921    106,533    1408
58,911    107,136    1400
58,901    106,132    1413
58,891    106,602    1407
58,881    106,399    1410
58,871    106,348    1410
58,861    106,588    1407
58,851    106,210    1412
58,841    106,463    1409
58,831    106,468    1409
58,821    106,197    1412
58,811    106,685    1406
58,801    106,426    1409
58,791    106,644    1407
58,781    106,936    1403
58,771    106,537    1408
58,761    106,132    1413
58,751    106,316    1411
58,741    106,496    1409
58,731    106,390    1410
58,721    106,284    1411
58,711    106,137    1413
58,701    106,491    1409
58,691    106,468    1409
58,681    106,417    1410
58,671    106,316    1411
58,661    106,206    1412
58,651    106,219    1412
58,641    106,436    1409
58,631    106,357    1410
58,621    106,367    1410
58,611    106,224    1412
58,601    106,160    1413
58,591    106,523    1408
58,581    106,288    1411
58,571    106,362    1410
58,561    106,247    1412
58,551    106,183    1413
58,541    106,992    1402
58,531    106,408    1410
58,521    106,164    1413
58,511    106,394    1410
58,501    106,325    1411
58,491    106,367    1410
58,481    106,390    1410
58,471    106,279    1411
58,461    106,403    1410
58,451    106,334    1411
58,441    106,261    1412
58,431    106,385    1410
58,421    106,169    1413
58,411    106,371    1410
58,401    106,242    1412
58,391    106,639    1407
58,381    106,556    1408
58,371    106,486    1409
58,361    106,662    1406
58,351    106,514    1408
58,341    106,174    1413
58,331    106,197    1412
58,321    106,440    1409
58,311    106,187    1413
58,301    106,546    1408
58,291    106,417    1410
58,281    106,206    1412
58,271    106,450    1409
58,261    106,298    1411
58,251    106,514    1408
58,241    106,321    1411
58,231    106,206    1412
58,221    106,450    1409
58,211    106,450    1409
58,201    106,500    1408
58,191    106,376    1410
58,181    105,977    1415
58,171    106,426    1409
58,161    106,519    1408
58,151    106,468    1409
58,141    106,242    1412
58,131    106,215    1412
58,121    106,376    1410
58,111    106,533    1408
58,101    106,233    1412
58,091    106,390    1410
58,081    106,528    1408
58,071    106,657    1406
58,061    106,210    1412
58,051    106,436    1409
58,041    106,288    1411
58,031    106,160    1413
58,021    106,413    1410
58,011    106,270    1411
58,001    106,288    1411
57,991    106,178    1413
57,981    106,334    1411
57,971    106,644    1407
57,961    106,215    1412
57,951    106,307    1411
57,941    106,114    1414
57,931    106,344    1411
57,921    106,620    1407
57,911    106,265    1412
57,901    106,357    1410
57,891    106,151    1413
57,881    106,426    1409
57,871    106,477    1409
57,861    106,307    1411
57,851    106,362    1410
57,841    106,265    1412
57,831    106,242    1412
57,821    106,611    1407
57,811    106,367    1410
57,801    106,247    1412
57,791    106,806    1404
57,781    106,727    1405
57,771    106,824    1404
57,761    106,727    1405
57,751    106,931    1403
57,741    107,169    1400
57,731    106,556    1408
57,721    106,160    1413
57,711    106,298    1411
57,701    106,787    1405
57,691    106,390    1410
57,681    106,279    1411
57,671    106,288    1411
57,661    106,265    1412
57,651    106,509    1408
57,641    106,468    1409
57,631    106,574    1407
57,621    106,634    1407
57,611    106,773    1405
57,601    106,866    1404
57,591    106,736    1405
57,581    106,141    1413
57,571    106,344    1411
57,561    106,233    1412
57,551    106,533    1408
57,541    106,509    1408
57,531    106,054    1414
57,521    106,325    1411
57,511    106,486    1409
57,501    106,371    1410
57,491    106,676    1406
57,481    106,210    1412
57,471    106,537    1408
57,461    106,468    1409
57,451    106,279    1411
57,441    106,783    1405
57,431    106,843    1404
57,421    106,978    1402
57,411    106,954    1402
57,401    106,815    1404
57,391    106,917    1403
57,381    107,230    1399
57,371    106,982    1402
57,361    106,644    1407
57,351    106,736    1405
57,341    107,197    1399
57,331    107,010    1402
57,321    106,334    1411
57,311    106,307    1411
57,301    106,514    1408
57,291    106,279    1411
57,281    106,477    1409
57,271    106,371    1410
57,261    106,574    1407
57,251    107,183    1399
57,241    106,588    1407
57,231    106,436    1409
57,221    106,662    1406
57,211    106,968    1402
57,201    106,533    1408
57,191    106,607    1407
57,181    106,611    1407
57,171    106,482    1409
57,161    106,773    1405
57,151    106,727    1405
57,141    106,755    1405
57,131    106,759    1405
57,121    106,639    1407
57,111    107,530    1395
57,101    107,478    1396
57,091    106,829    1404
57,081    107,099    1401
57,071    107,889    1390
57,061    108,150    1387
57,051    107,624    1394
57,041    107,319    1398
57,031    120,041    1250
57,021    109,881    1365
57,011    112,055    1339
