Z-Pos[um]|R[MOhm]|I[pA]
59,059    106,426    1409
59,049    106,908    1403
59,039    106,146    1413
59,029    106,477    1409
59,019    106,238    1412
59,009    106,431    1409
58,999    106,500    1408
58,989    106,316    1411
58,979    106,505    1408
58,969    106,325    1411
58,959    106,394    1410
58,949    106,390    1410
58,939    106,210    1412
58,929    106,426    1409
58,919    106,403    1410
58,909    106,261    1412
58,899    106,353    1410
58,889    106,238    1412
58,879    106,288    1411
58,869    106,367    1410
58,859    106,233    1412
58,849    106,445    1409
58,839    106,064    1414
58,829    106,155    1413
58,819    106,583    1407
58,809    106,265    1412
58,799    106,436    1409
58,789    106,344    1411
58,779    106,077    1414
58,769    106,560    1408
58,759    106,519    1408
58,749    106,704    1406
58,739    106,750    1405
58,729    107,197    1399
58,719    106,105    1414
58,709    106,463    1409
58,699    106,270    1411
58,689    106,298    1411
58,679    106,450    1409
58,669    106,132    1413
58,659    106,330    1411
58,649    106,091    1414
58,639    106,201    1412
58,629    106,574    1407
58,619    106,275    1411
58,609    106,233    1412
58,599    106,265    1412
58,589    106,367    1410
58,579    106,482    1409
58,569    106,298    1411
58,559    106,160    1413
58,549    106,311    1411
58,539    106,192    1413
58,529    106,417    1410
58,519    106,362    1410
58,509    106,201    1412
58,499    106,413    1410
58,489    106,279    1411
58,479    106,491    1409
58,469    106,450    1409
58,459    106,164    1413
58,449    106,417    1410
58,439    106,302    1411
58,429    106,399    1410
58,419    106,519    1408
58,409    106,137    1413
58,399    106,496    1409
58,389    106,224    1412
58,379    106,311    1411
58,369    106,394    1410
58,359    106,233    1412
58,349    106,436    1409
58,339    106,899    1403
58,329    106,653    1406
58,319    106,690    1406
58,309    106,593    1407
58,299    106,252    1412
58,289    106,357    1410
58,279    106,523    1408
58,269    106,050    1414
58,259    106,339    1411
58,249    106,224    1412
58,239    106,583    1407
58,229    106,468    1409
58,219    106,233    1412
58,209    106,523    1408
58,199    106,431    1409
58,189    106,096    1414
58,179    106,330    1411
58,169    106,330    1411
58,159    106,348    1410
58,149    106,390    1410
58,139    106,141    1413
58,129    106,403    1410
58,119    106,454    1409
58,109    106,491    1409
58,099    106,045    1414
58,089    106,293    1411
58,079    106,514    1408
58,069    106,183    1413
58,059    106,302    1411
58,049    106,109    1414
58,039    106,334    1411
58,029    106,593    1407
58,019    106,160    1413
58,009    106,408    1410
57,999    106,302    1411
57,989    106,206    1412
57,979    106,463    1409
57,969    106,183    1413
57,959    106,275    1411
57,949    106,542    1408
57,939    106,215    1412
57,929    106,394    1410
57,919    106,454    1409
57,909    106,068    1414
57,899    106,376    1410
57,889    106,367    1410
57,879    106,509    1408
57,869    106,445    1409
57,859    106,096    1414
57,849    106,371    1410
57,839    106,551    1408
57,829    106,316    1411
57,819    106,362    1410
57,809    106,219    1412
57,799    106,275    1411
57,789    106,463    1409
57,779    106,146    1413
57,769    106,311    1411
57,759    106,137    1413
57,749    106,385    1410
57,739    106,450    1409
57,729    106,339    1411
57,719    106,417    1410
57,709    106,229    1412
57,699    106,229    1412
57,689    106,468    1409
57,679    106,293    1411
57,669    106,468    1409
57,659    106,597    1407
57,649    106,302    1411
57,639    106,390    1410
57,629    106,390    1410
57,619    106,311    1411
57,609    106,486    1409
57,599    106,252    1412
57,589    106,459    1409
57,579    106,565    1408
57,569    106,210    1412
57,559    106,426    1409
57,549    106,523    1408
57,539    106,275    1411
57,529    106,445    1409
57,519    106,215    1412
57,509    106,302    1411
57,499    106,588    1407
57,489    106,187    1413
57,479    106,316    1411
57,469    106,151    1413
57,459    106,436    1409
57,449    106,574    1407
57,439    106,238    1412
57,429    106,293    1411
57,419    106,500    1408
57,409    106,394    1410
57,399    106,491    1409
57,389    106,413    1410
57,379    106,348    1410
57,369    106,440    1409
57,359    106,321    1411
57,349    106,694    1406
57,339    106,570    1408
57,329    106,468    1409
57,319    106,570    1408
57,309    106,440    1409
57,299    106,486    1409
57,289    106,509    1408
57,279    106,357    1410
57,269    106,602    1407
57,259    106,468    1409
57,249    106,556    1408
57,239    106,657    1406
57,229    106,288    1411
57,219    106,579    1407
57,209    106,824    1404
57,199    106,783    1405
57,189    106,773    1405
57,179    106,634    1407
57,169    106,806    1404
57,159    107,048    1401
57,149    106,801    1404
57,139    107,057    1401
57,129    106,704    1406
57,119    107,029    1401
57,109    108,041    1388
57,099    107,577    1394
57,089    107,127    1400
57,079    108,403    1384
57,069    112,832    1329
57,059    109,372    1371
