Z-Pos[um]|R[MOhm]|I[pA]
59,061    106,252    1412
59,051    106,745    1405
59,041    106,681    1406
59,031    106,657    1406
59,021    106,546    1408
59,011    106,380    1410
59,001    106,362    1410
58,991    106,491    1409
58,981    106,431    1409
58,971    106,252    1412
58,961    106,155    1413
58,951    106,339    1411
58,941    106,528    1408
58,931    106,311    1411
58,921    106,334    1411
58,911    106,339    1411
58,901    106,210    1412
58,891    106,491    1409
58,881    106,339    1411
58,871    106,178    1413
58,861    106,298    1411
58,851    106,353    1410
58,841    106,376    1410
58,831    106,339    1411
58,821    106,233    1412
58,811    106,542    1408
58,801    106,307    1411
58,791    106,394    1410
58,781    106,403    1410
58,771    106,288    1411
58,761    106,486    1409
58,751    106,311    1411
58,741    106,468    1409
58,731    106,380    1410
58,721    106,164    1413
58,711    106,380    1410
58,701    106,201    1412
58,691    106,486    1409
58,681    106,399    1410
58,671    106,256    1412
58,661    106,311    1411
58,651    106,454    1409
58,641    106,247    1412
58,631    106,616    1407
58,621    106,100    1414
58,611    106,676    1406
58,601    106,899    1403
58,591    106,838    1404
58,581    106,390    1410
58,571    106,620    1407
58,561    106,987    1402
58,551    106,454    1409
58,541    106,174    1413
58,531    106,293    1411
58,521    106,399    1410
58,511    106,880    1403
58,501    106,574    1407
58,491    106,183    1413
58,481    106,422    1409
58,471    106,307    1411
58,461    106,463    1409
58,451    106,537    1408
58,441    106,229    1412
58,431    106,413    1410
58,421    106,265    1412
58,411    106,265    1412
58,401    106,523    1408
58,391    106,050    1414
58,381    106,422    1409
58,371    106,307    1411
58,361    106,275    1411
58,351    106,454    1409
58,341    106,284    1411
58,331    106,367    1410
58,321    106,275    1411
58,311    106,224    1412
58,301    106,528    1408
58,291    106,146    1413
58,281    106,519    1408
58,271    106,852    1404
58,261    106,450    1409
58,251    106,178    1413
58,241    106,385    1410
58,231    106,252    1412
58,221    106,426    1409
58,211    106,399    1410
58,201    106,123    1413
58,191    106,514    1408
58,181    106,463    1409
58,171    106,496    1409
58,161    106,399    1410
58,151    106,123    1413
58,141    106,454    1409
58,131    106,242    1412
58,121    106,450    1409
58,111    106,436    1409
58,101    106,293    1411
58,091    106,463    1409
58,081    106,505    1408
58,071    106,348    1410
58,061    106,500    1408
58,051    106,371    1410
58,041    106,394    1410
58,031    106,852    1404
58,021    106,192    1413
58,011    106,371    1410
58,001    106,247    1412
57,991    106,519    1408
57,981    106,468    1409
57,971    106,151    1413
57,961    106,509    1408
57,951    106,459    1409
57,941    106,570    1408
57,931    106,491    1409
57,921    106,146    1413
57,911    106,403    1410
57,901    106,247    1412
57,891    106,353    1410
57,881    106,588    1407
57,871    106,073    1414
57,861    106,482    1409
57,851    106,298    1411
57,841    106,533    1408
57,831    106,413    1410
57,821    106,073    1414
57,811    106,367    1410
57,801    106,889    1403
57,791    106,422    1409
57,781    106,523    1408
57,771    106,362    1410
57,761    106,385    1410
57,751    106,551    1408
57,741    106,385    1410
57,731    106,119    1414
57,721    106,463    1409
57,711    106,482    1409
57,701    106,482    1409
57,691    106,440    1409
57,681    106,050    1414
57,671    106,371    1410
57,661    106,560    1408
57,651    106,339    1411
57,641    106,426    1409
57,631    106,279    1411
57,621    106,348    1410
57,611    106,491    1409
57,601    106,279    1411
57,591    106,473    1409
57,581    106,390    1410
57,571    106,036    1415
57,561    106,440    1409
57,551    106,288    1411
57,541    106,440    1409
57,531    106,256    1412
57,521    106,252    1412
57,511    106,620    1407
57,501    106,473    1409
57,491    106,551    1408
57,481    106,334    1411
57,471    106,473    1409
57,461    106,537    1408
57,451    106,284    1411
57,441    106,288    1411
57,431    106,426    1409
57,421    106,344    1411
57,411    106,551    1408
57,401    106,353    1410
57,391    106,357    1410
57,381    106,533    1408
57,371    106,321    1411
57,361    106,579    1407
57,351    106,509    1408
57,341    106,197    1412
57,331    106,546    1408
57,321    106,514    1408
57,311    106,653    1406
57,301    106,496    1409
57,291    106,307    1411
57,281    106,607    1407
57,271    106,519    1408
57,261    106,533    1408
57,251    106,699    1406
57,241    106,367    1410
57,231    106,885    1403
57,221    107,127    1400
57,211    106,750    1405
57,201    106,630    1407
57,191    107,272    1398
57,181    107,034    1401
57,171    106,913    1403
57,161    107,052    1401
57,151    106,917    1403
57,141    106,982    1402
57,131    107,610    1394
57,121    107,043    1401
57,111    106,982    1402
57,101    108,792    1379
57,091    107,728    1392
57,081    107,150    1400
57,071    108,441    1383
57,061    112,625    1332
57,051    108,484    1383
57,041    118,713    1264
