Z-Pos[um]|R[MOhm]|I[pA]
59,042    106,380    1410
59,032    106,741    1405
59,022    106,357    1410
59,012    106,233    1412
59,002    106,298    1411
58,992    106,611    1407
58,982    106,178    1413
58,972    106,265    1412
58,962    106,247    1412
58,952    106,431    1409
58,942    106,500    1408
58,932    106,367    1410
58,922    106,413    1410
58,912    106,917    1403
58,902    106,806    1404
58,892    106,936    1403
58,882    106,362    1410
58,872    106,298    1411
58,862    106,109    1414
58,852    106,574    1407
58,842    106,450    1409
58,832    106,417    1410
58,822    106,238    1412
58,812    106,367    1410
58,802    106,546    1408
58,792    106,519    1408
58,782    106,114    1414
58,772    106,431    1409
58,762    106,394    1410
58,752    106,505    1408
58,742    106,445    1409
58,732    106,068    1414
58,722    106,252    1412
58,712    106,380    1410
58,702    106,413    1410
58,692    106,302    1411
58,682    106,146    1413
58,672    106,261    1412
58,662    106,321    1411
58,652    106,408    1410
58,642    106,215    1412
58,632    106,132    1413
58,622    106,229    1412
58,612    106,399    1410
58,602    106,321    1411
58,592    106,348    1410
58,582    106,100    1414
58,572    106,298    1411
58,562    106,496    1409
58,552    106,362    1410
58,542    106,491    1409
58,532    106,224    1412
58,522    106,187    1413
58,512    106,509    1408
58,502    106,187    1413
58,492    106,242    1412
58,482    106,164    1413
58,472    106,238    1412
58,462    106,413    1410
58,452    106,206    1412
58,442    106,321    1411
58,432    106,551    1408
58,422    106,298    1411
58,412    106,445    1409
58,402    106,367    1410
58,392    106,073    1414
58,382    106,491    1409
58,372    106,247    1412
58,362    106,454    1409
58,352    106,334    1411
58,342    106,206    1412
58,332    106,339    1411
58,322    106,348    1410
58,312    106,551    1408
58,302    106,265    1412
58,292    106,192    1413
58,282    106,339    1411
58,272    106,463    1409
58,262    106,307    1411
58,252    106,348    1410
58,242    106,206    1412
58,232    106,215    1412
58,222    106,371    1410
58,212    106,256    1412
58,202    106,123    1413
58,192    106,436    1409
58,182    106,390    1410
58,172    106,857    1404
58,162    106,509    1408
58,152    106,091    1414
58,142    106,445    1409
58,132    106,482    1409
58,122    106,413    1410
58,112    106,496    1409
58,102    106,077    1414
58,092    106,325    1411
58,082    106,593    1407
58,072    106,353    1410
58,062    106,528    1408
58,052    106,275    1411
58,042    106,224    1412
58,032    106,551    1408
58,022    106,128    1413
58,012    106,279    1411
58,002    106,160    1413
57,992    106,187    1413
57,982    106,546    1408
57,972    106,265    1412
57,962    106,459    1409
57,952    106,238    1412
57,942    106,367    1410
57,932    106,773    1405
57,922    106,482    1409
57,912    106,403    1410
57,902    106,334    1411
57,892    106,298    1411
57,882    106,298    1411
57,872    106,385    1410
57,862    106,155    1413
57,852    106,302    1411
57,842    106,164    1413
57,832    106,390    1410
57,822    106,533    1408
57,812    106,137    1413
57,802    106,298    1411
57,792    106,436    1409
57,782    106,284    1411
57,772    106,505    1408
57,762    106,210    1412
57,752    106,279    1411
57,742    106,473    1409
57,732    106,288    1411
57,722    106,348    1410
57,712    106,109    1414
57,702    106,155    1413
57,692    106,519    1408
57,682    106,450    1409
57,672    106,353    1410
57,662    106,229    1412
57,652    106,551    1408
57,642    106,311    1411
57,632    106,459    1409
57,622    106,445    1409
57,612    106,233    1412
57,602    106,496    1409
57,592    106,413    1410
57,582    106,348    1410
57,572    106,302    1411
57,562    106,151    1413
57,552    106,560    1408
57,542    106,321    1411
57,532    106,238    1412
57,522    106,307    1411
57,512    106,454    1409
57,502    106,519    1408
57,492    106,394    1410
57,482    106,247    1412
57,472    106,533    1408
57,462    106,288    1411
57,452    106,630    1407
57,442    106,653    1406
57,432    106,546    1408
57,422    106,560    1408
57,412    106,820    1404
57,402    106,662    1406
57,392    106,792    1405
57,382    106,551    1408
57,372    106,542    1408
57,362    106,344    1411
57,352    106,611    1407
57,342    106,357    1410
57,332    106,362    1410
57,322    106,597    1407
57,312    106,316    1411
57,302    106,574    1407
57,292    106,279    1411
57,282    106,376    1410
57,272    106,722    1406
57,262    106,325    1411
57,252    106,625    1407
57,242    106,426    1409
57,232    106,440    1409
57,222    106,611    1407
57,212    106,468    1409
57,202    106,565    1408
57,192    106,620    1407
57,182    106,593    1407
57,172    106,630    1407
57,162    106,546    1408
57,152    106,648    1406
57,142    106,773    1405
57,132    106,982    1402
57,122    106,820    1404
57,112    106,885    1403
57,102    108,594    1381
57,092    107,108    1400
57,082    107,164    1400
57,072    108,527    1382
57,062    107,554    1395
57,052    107,572    1394
57,042    1548,580    97
57,032    113,762    1319
