Z-Pos[um]|R[MOhm]|I[pA]
59,017    106,316    1411
59,007    106,732    1405
58,997    106,307    1411
58,987    106,169    1413
58,977    106,399    1410
58,967    106,528    1408
58,957    106,215    1412
58,947    106,265    1412
58,937    106,403    1410
58,927    106,445    1409
58,917    106,500    1408
58,907    106,334    1411
58,897    106,311    1411
58,887    106,380    1410
58,877    106,247    1412
58,867    106,667    1406
58,857    106,528    1408
58,847    106,482    1409
58,837    106,722    1406
58,827    106,667    1406
58,817    106,385    1410
58,807    106,500    1408
58,797    106,616    1407
58,787    106,533    1408
58,777    106,463    1409
58,767    106,334    1411
58,757    106,519    1408
58,747    106,681    1406
58,737    106,620    1407
58,727    106,307    1411
58,717    106,570    1408
58,707    106,450    1409
58,697    106,339    1411
58,687    106,325    1411
58,677    106,602    1407
58,667    106,500    1408
58,657    106,440    1409
58,647    106,334    1411
58,637    106,151    1413
58,627    107,277    1398
58,617    106,523    1408
58,607    106,302    1411
58,597    106,417    1410
58,587    106,141    1413
58,577    106,362    1410
58,567    106,450    1409
58,557    106,321    1411
58,547    106,302    1411
58,537    106,201    1412
58,527    106,316    1411
58,517    106,500    1408
58,507    106,206    1412
58,497    106,123    1413
58,487    106,362    1410
58,477    106,109    1414
58,467    106,491    1409
58,457    106,298    1411
58,447    106,219    1412
58,437    106,500    1408
58,427    106,620    1407
58,417    106,330    1411
58,407    106,838    1404
58,397    106,399    1410
58,387    106,440    1409
58,377    106,574    1407
58,367    106,625    1407
58,357    106,560    1408
58,347    106,704    1406
58,337    106,183    1413
58,327    106,348    1410
58,317    106,399    1410
58,307    106,279    1411
58,297    106,307    1411
58,287    106,256    1412
58,277    106,275    1411
58,267    106,380    1410
58,257    106,417    1410
58,247    106,491    1409
58,237    106,339    1411
58,227    106,183    1413
58,217    106,385    1410
58,207    106,298    1411
58,197    106,486    1409
58,187    106,523    1408
58,177    106,275    1411
58,167    106,344    1411
58,157    106,422    1409
58,147    106,311    1411
58,137    106,542    1408
58,127    106,123    1413
58,117    106,801    1404
58,107    106,556    1408
58,097    106,288    1411
58,087    106,247    1412
58,077    106,247    1412
58,067    106,229    1412
58,057    106,436    1409
58,047    106,270    1411
58,037    106,096    1414
58,027    106,293    1411
58,017    106,201    1412
58,007    106,399    1410
57,997    106,491    1409
57,987    106,197    1412
57,977    106,519    1408
57,967    106,380    1410
57,957    106,210    1412
57,947    106,357    1410
57,937    106,137    1413
57,927    106,164    1413
57,917    106,528    1408
57,907    106,206    1412
57,897    106,445    1409
57,887    106,238    1412
57,877    106,032    1415
57,867    106,620    1407
57,857    106,233    1412
57,847    106,302    1411
57,837    106,321    1411
57,827    106,164    1413
57,817    106,463    1409
57,807    106,261    1412
57,797    106,265    1412
57,787    106,523    1408
57,777    106,394    1410
57,767    106,491    1409
57,757    106,376    1410
57,747    106,146    1413
57,737    106,556    1408
57,727    106,630    1407
57,717    106,477    1409
57,707    106,505    1408
57,697    106,219    1412
57,687    106,325    1411
57,677    106,500    1408
57,667    106,210    1412
57,657    106,445    1409
57,647    106,353    1410
57,637    106,229    1412
57,627    106,509    1408
57,617    106,206    1412
57,607    106,339    1411
57,597    106,233    1412
57,587    106,307    1411
57,577    106,463    1409
57,567    106,238    1412
57,557    106,514    1408
57,547    106,685    1406
57,537    106,491    1409
57,527    106,256    1412
57,517    106,353    1410
57,507    106,284    1411
57,497    106,422    1409
57,487    106,523    1408
57,477    106,344    1411
57,467    106,371    1410
57,457    106,164    1413
57,447    106,408    1410
57,437    106,505    1408
57,427    106,325    1411
57,417    106,146    1413
57,407    106,417    1410
57,397    106,252    1412
57,387    106,473    1409
57,377    106,426    1409
57,367    106,178    1413
57,357    106,450    1409
57,347    106,376    1410
57,337    106,607    1407
57,327    106,491    1409
57,317    106,064    1414
57,307    106,537    1408
57,297    106,570    1408
57,287    106,927    1403
57,277    106,996    1402
57,267    106,908    1403
57,257    106,889    1403
57,247    106,880    1403
57,237    106,806    1404
57,227    106,390    1410
57,217    106,463    1409
57,207    106,644    1407
57,197    106,537    1408
57,187    106,745    1405
57,177    106,736    1405
57,167    106,866    1404
57,157    107,113    1400
57,147    106,759    1405
57,137    106,982    1402
57,127    107,066    1401
57,117    106,885    1403
57,107    107,146    1400
57,097    107,080    1401
57,087    106,950    1403
57,077    107,445    1396
57,067    108,782    1379
57,057    107,889    1390
57,047    107,927    1390
57,037    108,494    1383
57,027    109,955    1364
