Z-Pos[um]|R[MOhm]|I[pA]
59,057    106,334    1411
59,047    106,639    1407
59,037    106,505    1408
59,027    106,238    1412
59,017    106,505    1408
59,007    106,690    1406
58,997    106,546    1408
58,987    106,681    1406
58,977    107,052    1401
58,967    106,936    1403
58,957    106,519    1408
58,947    106,824    1404
58,937    106,505    1408
58,927    106,206    1412
58,917    106,174    1413
58,907    106,380    1410
58,897    106,105    1414
58,887    106,644    1407
58,877    106,394    1410
58,867    106,128    1413
58,857    106,367    1410
58,847    106,399    1410
58,837    106,330    1411
58,827    106,570    1408
58,817    106,588    1407
58,807    106,848    1404
58,797    107,015    1402
58,787    106,546    1408
58,777    106,528    1408
58,767    106,745    1405
58,757    106,371    1410
58,747    106,137    1413
58,737    106,431    1409
58,727    106,353    1410
58,717    106,843    1404
58,707    107,043    1401
58,697    106,620    1407
58,687    106,091    1414
58,677    106,523    1408
58,667    106,068    1414
58,657    106,279    1411
58,647    106,436    1409
58,637    106,151    1413
58,627    106,459    1409
58,617    106,325    1411
58,607    106,128    1413
58,597    106,468    1409
58,587    106,242    1412
58,577    106,436    1409
58,567    106,385    1410
58,557    106,197    1412
58,547    106,394    1410
58,537    106,146    1413
58,527    106,041    1415
58,517    106,353    1410
58,507    106,224    1412
58,497    106,174    1413
58,487    106,210    1412
58,477    106,247    1412
58,467    106,704    1406
58,457    106,307    1411
58,447    106,256    1412
58,437    106,206    1412
58,427    106,367    1410
58,417    106,745    1405
58,407    106,394    1410
58,397    106,178    1413
58,387    106,491    1409
58,377    106,330    1411
58,367    106,403    1410
58,357    106,408    1410
58,347    106,727    1405
58,337    106,699    1406
58,327    106,667    1406
58,317    106,616    1407
58,307    106,657    1406
58,297    106,403    1410
58,287    106,602    1407
58,277    106,219    1412
58,267    106,330    1411
58,257    106,344    1411
58,247    106,330    1411
58,237    106,367    1410
58,227    106,155    1413
58,217    106,151    1413
58,207    106,371    1410
58,197    106,178    1413
58,187    106,334    1411
58,177    106,279    1411
58,167    106,229    1412
58,157    107,272    1398
58,147    106,500    1408
58,137    106,242    1412
58,127    106,473    1409
58,117    106,616    1407
58,107    106,279    1411
58,097    106,426    1409
58,087    106,197    1412
58,077    106,533    1408
58,067    106,371    1410
58,057    106,059    1414
58,047    106,371    1410
58,037    106,119    1414
58,027    106,141    1413
58,017    106,463    1409
58,007    106,219    1412
57,997    106,091    1414
57,987    106,422    1409
57,977    106,155    1413
57,967    106,685    1406
57,957    106,648    1406
57,947    106,426    1409
57,937    106,685    1406
57,927    106,694    1406
57,917    106,588    1407
57,907    106,662    1406
57,897    106,588    1407
57,887    106,417    1410
57,877    106,574    1407
57,867    106,311    1411
57,857    106,252    1412
57,847    106,509    1408
57,837    106,792    1405
57,827    106,514    1408
57,817    106,486    1409
57,807    106,732    1405
57,797    106,450    1409
57,787    106,463    1409
57,777    106,298    1411
57,767    106,036    1415
57,757    106,334    1411
57,747    106,417    1410
57,737    106,362    1410
57,727    106,201    1412
57,717    106,100    1414
57,707    106,233    1412
57,697    106,445    1409
57,687    106,376    1410
57,677    106,436    1409
57,667    106,151    1413
57,657    106,293    1411
57,647    106,413    1410
57,637    106,256    1412
57,627    106,523    1408
57,617    106,187    1413
57,607    106,307    1411
57,597    106,514    1408
57,587    106,192    1413
57,577    106,307    1411
57,567    106,339    1411
57,557    106,224    1412
57,547    106,500    1408
57,537    106,261    1412
57,527    106,183    1413
57,517    106,459    1409
57,507    106,399    1410
57,497    106,417    1410
57,487    106,403    1410
57,477    106,178    1413
57,467    106,486    1409
57,457    106,371    1410
57,447    106,542    1408
57,437    106,252    1412
57,427    106,169    1413
57,417    106,390    1410
57,407    106,528    1408
57,397    106,616    1407
57,387    106,270    1411
57,377    106,265    1412
57,367    106,514    1408
57,357    106,413    1410
57,347    106,509    1408
57,337    106,866    1404
57,327    106,330    1411
57,317    106,307    1411
57,307    106,667    1406
57,297    106,468    1409
57,287    106,574    1407
57,277    106,367    1410
57,267    106,482    1409
57,257    106,722    1406
57,247    106,445    1409
57,237    106,611    1407
57,227    106,468    1409
57,217    106,440    1409
57,207    106,815    1404
57,197    106,718    1406
57,187    106,486    1409
57,177    106,764    1405
57,167    106,445    1409
57,157    106,885    1403
57,147    107,267    1398
57,137    106,927    1403
57,127    107,478    1396
57,117    107,309    1398
57,107    106,922    1403
57,097    106,718    1406
57,087    108,849    1378
57,077    107,879    1390
57,067    107,431    1396
57,057    108,022    1389
57,047    111,882    1341
