Z-Pos[um]|R[MOhm]|I[pA]
59,052    106,450    1409
59,042    107,034    1401
59,032    106,459    1409
59,022    106,348    1410
59,012    106,523    1408
59,002    106,325    1411
58,992    106,533    1408
58,982    106,408    1410
58,972    106,128    1413
58,962    106,565    1408
58,952    106,344    1411
58,942    106,413    1410
58,932    106,440    1409
58,922    106,233    1412
58,912    106,519    1408
58,902    106,270    1411
58,892    106,302    1411
58,882    106,644    1407
58,872    106,288    1411
58,862    106,100    1414
58,852    106,496    1409
58,842    106,215    1412
58,832    106,321    1411
58,822    106,353    1410
58,812    106,197    1412
58,802    106,583    1407
58,792    106,210    1412
58,782    106,330    1411
58,772    106,298    1411
58,762    106,201    1412
58,752    106,473    1409
58,742    106,224    1412
58,732    106,468    1409
58,722    106,316    1411
58,712    106,362    1410
58,702    106,546    1408
58,692    106,187    1413
58,682    106,284    1411
58,672    106,367    1410
58,662    106,298    1411
58,652    106,815    1404
58,642    106,894    1403
58,632    106,639    1407
58,622    106,704    1406
58,612    106,620    1407
58,602    106,105    1414
58,592    106,311    1411
58,582    106,394    1410
58,572    106,233    1412
58,562    106,367    1410
58,552    106,302    1411
58,542    106,087    1414
58,532    106,371    1410
58,522    106,298    1411
58,512    106,436    1409
58,502    106,486    1409
58,492    106,155    1413
58,482    106,247    1412
58,472    106,155    1413
58,462    106,634    1407
58,452    106,496    1409
58,442    106,146    1413
58,432    106,399    1410
58,422    106,431    1409
58,412    106,298    1411
58,402    106,321    1411
58,392    106,187    1413
58,382    106,307    1411
58,372    106,298    1411
58,362    106,394    1410
58,352    106,233    1412
58,342    106,376    1410
58,332    106,597    1407
58,322    106,426    1409
58,312    106,054    1414
58,302    106,399    1410
58,292    106,197    1412
58,282    106,311    1411
58,272    106,321    1411
58,262    106,178    1413
58,252    106,413    1410
58,242    106,399    1410
58,232    106,436    1409
58,222    106,334    1411
58,212    106,321    1411
58,202    106,219    1412
58,192    106,357    1410
58,182    106,288    1411
58,172    106,330    1411
58,162    106,146    1413
58,152    106,178    1413
58,142    106,778    1405
58,132    106,288    1411
58,122    106,408    1410
58,112    106,123    1413
58,102    106,325    1411
58,092    106,500    1408
58,082    106,302    1411
58,072    106,367    1410
58,062    106,450    1409
58,052    106,302    1411
58,042    106,482    1409
58,032    106,422    1409
58,022    106,187    1413
58,012    106,321    1411
58,002    106,284    1411
57,992    106,233    1412
57,982    106,413    1410
57,972    106,376    1410
57,962    106,109    1414
57,952    106,514    1408
57,942    106,219    1412
57,932    106,229    1412
57,922    106,242    1412
57,912    106,454    1409
57,902    106,704    1406
57,892    106,565    1408
57,882    106,417    1410
57,872    106,602    1407
57,862    106,769    1405
57,852    106,468    1409
57,842    106,648    1406
57,832    106,630    1407
57,822    106,634    1407
57,812    106,704    1406
57,802    106,459    1409
57,792    106,376    1410
57,782    106,829    1404
57,772    106,560    1408
57,762    106,275    1411
57,752    106,385    1410
57,742    106,224    1412
57,732    106,174    1413
57,722    106,385    1410
57,712    106,316    1411
57,702    106,533    1408
57,692    106,634    1407
57,682    106,579    1407
57,672    106,671    1406
57,662    106,787    1405
57,652    106,477    1409
57,642    106,270    1411
57,632    106,634    1407
57,622    106,219    1412
57,612    106,247    1412
57,602    106,197    1412
57,592    106,252    1412
57,582    106,602    1407
57,572    106,316    1411
57,562    106,302    1411
57,552    106,394    1410
57,542    106,514    1408
57,532    106,348    1410
57,522    106,764    1405
57,512    106,556    1408
57,502    106,528    1408
57,492    106,713    1406
57,482    106,380    1410
57,472    106,399    1410
57,462    106,399    1410
57,452    106,316    1411
57,442    106,579    1407
57,432    106,367    1410
57,422    106,321    1411
57,412    106,334    1411
57,402    106,288    1411
57,392    106,616    1407
57,382    106,509    1408
57,372    106,275    1411
57,362    106,560    1408
57,352    106,560    1408
57,342    106,436    1409
57,332    106,486    1409
57,322    106,261    1412
57,312    106,491    1409
57,302    106,431    1409
57,292    106,634    1407
57,282    106,611    1407
57,272    106,307    1411
57,262    106,528    1408
57,252    106,551    1408
57,242    106,607    1407
57,232    106,607    1407
57,222    106,473    1409
57,212    106,546    1408
57,202    106,792    1405
57,192    106,607    1407
57,182    106,931    1403
57,172    106,579    1407
57,162    106,556    1408
57,152    106,848    1404
57,142    106,903    1403
57,132    107,323    1398
57,122    106,801    1404
57,112    107,132    1400
57,102    109,524    1370
57,092    107,024    1402
57,082    107,657    1393
57,072    114,461    1310
57,062    116,100    1292
