Z-Pos[um]|R[MOhm]|I[pA]
59,017    106,422    1409
59,007    106,889    1403
58,997    106,219    1412
58,987    106,422    1409
58,977    106,288    1411
58,967    106,482    1409
58,957    106,810    1404
58,947    107,085    1401
58,937    106,992    1402
58,927    106,486    1409
58,917    106,694    1406
58,907    106,505    1408
58,897    106,298    1411
58,887    106,413    1410
58,877    106,330    1411
58,867    106,252    1412
58,857    106,413    1410
58,847    106,123    1413
58,837    106,229    1412
58,827    106,399    1410
58,817    106,810    1404
58,807    106,857    1404
58,797    106,583    1407
58,787    106,625    1407
58,777    106,852    1404
58,767    106,722    1406
58,757    106,630    1407
58,747    106,390    1410
58,737    106,838    1404
58,727    106,824    1404
58,717    106,362    1410
58,707    106,132    1413
58,697    106,431    1409
58,687    106,201    1412
58,677    106,376    1410
58,667    106,252    1412
58,657    106,169    1413
58,647    106,426    1409
58,637    106,344    1411
58,627    106,215    1412
58,617    106,247    1412
58,607    106,362    1410
58,597    106,256    1412
58,587    106,155    1413
58,577    106,353    1410
58,567    106,307    1411
58,557    106,210    1412
58,547    106,408    1410
58,537    106,408    1410
58,527    106,123    1413
58,517    106,321    1411
58,507    106,348    1410
58,497    106,413    1410
58,487    106,482    1409
58,477    106,141    1413
58,467    106,178    1413
58,457    106,408    1410
58,447    106,224    1412
58,437    106,339    1411
58,427    106,146    1413
58,417    106,032    1415
58,407    106,653    1406
58,397    106,403    1410
58,387    106,468    1409
58,377    106,417    1410
58,367    106,219    1412
58,357    106,468    1409
58,347    106,588    1407
58,337    106,105    1414
58,327    106,394    1410
58,317    106,229    1412
58,307    106,265    1412
58,297    106,385    1410
58,287    106,096    1414
58,277    106,385    1410
58,267    106,275    1411
58,257    106,284    1411
58,247    106,344    1411
58,237    106,128    1413
58,227    106,486    1409
58,217    106,302    1411
58,207    106,362    1410
58,197    106,325    1411
58,187    106,164    1413
58,177    106,242    1412
58,167    106,519    1408
58,157    106,348    1410
58,147    106,509    1408
58,137    106,215    1412
58,127    106,215    1412
58,117    106,422    1409
58,107    106,091    1414
58,097    106,183    1413
58,087    106,197    1412
58,077    106,151    1413
58,067    106,644    1407
58,057    106,132    1413
58,047    106,210    1412
58,037    106,316    1411
58,027    106,238    1412
58,017    106,509    1408
58,007    106,403    1410
57,997    106,238    1412
57,987    106,206    1412
57,977    106,284    1411
57,967    106,486    1409
57,957    106,431    1409
57,947    106,183    1413
57,937    106,362    1410
57,927    106,357    1410
57,917    106,403    1410
57,907    106,542    1408
57,897    106,082    1414
57,887    106,357    1410
57,877    106,357    1410
57,867    106,252    1412
57,857    106,348    1410
57,847    106,192    1413
57,837    106,376    1410
57,827    106,353    1410
57,817    106,321    1411
57,807    106,486    1409
57,797    106,197    1412
57,787    106,293    1411
57,777    106,514    1408
57,767    106,151    1413
57,757    106,275    1411
57,747    106,233    1412
57,737    106,302    1411
57,727    106,509    1408
57,717    106,261    1412
57,707    106,426    1409
57,697    106,219    1412
57,687    106,450    1409
57,677    106,732    1405
57,667    106,560    1408
57,657    106,413    1410
57,647    106,565    1408
57,637    106,620    1407
57,627    106,376    1410
57,617    106,634    1407
57,607    106,551    1408
57,597    106,491    1409
57,587    106,713    1406
57,577    106,694    1406
57,567    106,357    1410
57,557    106,727    1405
57,547    106,764    1405
57,537    106,422    1409
57,527    106,367    1410
57,517    106,639    1407
57,507    106,509    1408
57,497    106,630    1407
57,487    106,371    1410
57,477    106,210    1412
57,467    106,298    1411
57,457    106,468    1409
57,447    106,426    1409
57,437    106,473    1409
57,427    106,298    1411
57,417    106,334    1411
57,407    106,551    1408
57,397    106,307    1411
57,387    106,523    1408
57,377    106,137    1413
57,367    106,321    1411
57,357    106,463    1409
57,347    106,353    1410
57,337    106,385    1410
57,327    106,293    1411
57,317    106,362    1410
57,307    106,607    1407
57,297    106,376    1410
57,287    106,486    1409
57,277    106,321    1411
57,267    106,519    1408
57,257    106,694    1406
57,247    106,385    1410
57,237    106,321    1411
57,227    106,533    1408
57,217    106,681    1406
57,207    106,505    1408
57,197    106,560    1408
57,187    106,583    1407
57,177    106,551    1408
57,167    106,574    1407
57,157    106,922    1403
57,147    106,759    1405
57,137    106,671    1406
57,127    106,648    1406
57,117    106,834    1404
57,107    107,347    1397
57,097    106,880    1403
57,087    107,118    1400
57,077    108,542    1382
57,067    107,403    1397
57,057    107,455    1396
57,047    109,690    1367
