Z-Pos[um]|R[MOhm]|I[pA]
59,059    106,556    1408
59,049    106,773    1405
59,039    106,174    1413
59,029    106,371    1410
59,019    106,339    1411
59,009    106,445    1409
58,999    106,307    1411
58,989    106,183    1413
58,979    106,390    1410
58,969    106,362    1410
58,959    106,413    1410
58,949    106,247    1412
58,939    106,288    1411
58,929    106,316    1411
58,919    106,431    1409
58,909    106,270    1411
58,899    106,653    1406
58,889    106,964    1402
58,879    106,908    1403
58,869    106,496    1409
58,859    106,417    1410
58,849    106,265    1412
58,839    106,316    1411
58,829    106,542    1408
58,819    106,385    1410
58,809    106,330    1411
58,799    106,242    1412
58,789    106,288    1411
58,779    106,385    1410
58,769    106,252    1412
58,759    106,197    1412
58,749    106,500    1408
58,739    106,160    1413
58,729    106,551    1408
58,719    106,380    1410
58,709    106,178    1413
58,699    106,284    1411
58,689    106,293    1411
58,679    106,325    1411
58,669    106,330    1411
58,659    106,077    1414
58,649    106,463    1409
58,639    106,514    1408
58,629    106,394    1410
58,619    106,325    1411
58,609    105,995    1415
58,599    106,477    1409
58,589    106,445    1409
58,579    106,385    1410
58,569    106,197    1412
58,559    106,096    1414
58,549    106,215    1412
58,539    106,339    1411
58,529    106,362    1410
58,519    106,440    1409
58,509    106,137    1413
58,499    106,270    1411
58,489    106,593    1407
58,479    106,146    1413
58,469    106,261    1412
58,459    106,064    1414
58,449    106,201    1412
58,439    106,431    1409
58,429    106,238    1412
58,419    106,468    1409
58,409    106,160    1413
58,399    106,160    1413
58,389    106,367    1410
58,379    106,353    1410
58,369    106,247    1412
58,359    106,644    1407
58,349    106,588    1407
58,339    106,694    1406
58,329    106,542    1408
58,319    106,431    1409
58,309    106,509    1408
58,299    106,611    1407
58,289    106,316    1411
58,279    106,265    1412
58,269    106,275    1411
58,259    106,477    1409
58,249    106,482    1409
58,239    106,187    1413
58,229    106,408    1410
58,219    106,284    1411
58,209    106,394    1410
58,199    106,454    1409
58,189    106,362    1410
58,179    106,146    1413
58,169    106,316    1411
58,159    106,206    1412
58,149    106,371    1410
58,139    106,265    1412
58,129    106,233    1412
58,119    106,408    1410
58,109    106,256    1412
58,099    106,413    1410
58,089    106,454    1409
58,079    106,284    1411
58,069    106,542    1408
58,059    106,183    1413
58,049    106,625    1407
58,039    106,426    1409
58,029    106,311    1411
58,019    106,344    1411
58,009    106,454    1409
57,999    106,426    1409
57,989    106,579    1407
57,979    106,197    1412
57,969    106,551    1408
57,959    106,105    1414
57,949    106,357    1410
57,939    106,151    1413
57,929    106,256    1412
57,919    106,514    1408
57,909    106,275    1411
57,899    106,334    1411
57,889    106,426    1409
57,879    106,128    1413
57,869    106,565    1408
57,859    106,174    1413
57,849    106,178    1413
57,839    106,178    1413
57,829    106,454    1409
57,819    106,265    1412
57,809    106,394    1410
57,799    106,242    1412
57,789    106,445    1409
57,779    106,403    1410
57,769    106,197    1412
57,759    106,316    1411
57,749    106,288    1411
57,739    106,192    1413
57,729    106,519    1408
57,719    106,201    1412
57,709    106,252    1412
57,699    106,413    1410
57,689    106,385    1410
57,679    106,339    1411
57,669    106,491    1409
57,659    106,242    1412
57,649    106,431    1409
57,639    106,459    1409
57,629    106,252    1412
57,619    106,408    1410
57,609    106,206    1412
57,599    106,500    1408
57,589    106,367    1410
57,579    106,215    1412
57,569    106,417    1410
57,559    106,279    1411
57,549    106,330    1411
57,539    106,838    1404
57,529    106,454    1409
57,519    106,625    1407
57,509    106,376    1410
57,499    106,542    1408
57,489    106,403    1410
57,479    106,523    1408
57,469    106,482    1409
57,459    106,607    1407
57,449    106,445    1409
57,439    106,408    1410
57,429    106,426    1409
57,419    106,275    1411
57,409    106,302    1411
57,399    106,634    1407
57,389    106,288    1411
57,379    106,242    1412
57,369    106,371    1410
57,359    106,279    1411
57,349    106,685    1406
57,339    106,367    1410
57,329    106,611    1407
57,319    106,385    1410
57,309    106,440    1409
57,299    106,473    1409
57,289    106,468    1409
57,279    106,311    1411
57,269    106,357    1410
57,259    106,519    1408
57,249    106,671    1406
57,239    106,450    1409
57,229    106,330    1411
57,219    106,620    1407
57,209    106,436    1409
57,199    106,616    1407
57,189    106,773    1405
57,179    106,713    1406
57,169    106,834    1404
57,159    106,454    1409
57,149    106,875    1404
57,139    108,331    1385
57,129    106,509    1408
57,119    106,950    1403
57,109    107,450    1396
57,099    108,293    1385
57,089    113,342    1323
57,079    108,369    1384
57,069    108,960    1377
57,059    129,245    1161
