Z-Pos[um]|R[MOhm]|I[pA]
58,967    106,224    1412
58,957    106,894    1403
58,947    107,239    1399
58,937    106,644    1407
58,927    106,371    1410
58,917    106,311    1411
58,907    106,482    1409
58,897    106,417    1410
58,887    106,288    1411
58,877    106,583    1407
58,867    106,151    1413
58,857    106,486    1409
58,847    106,330    1411
58,837    106,523    1408
58,827    106,390    1410
58,817    106,032    1415
58,807    106,367    1410
58,797    106,399    1410
58,787    106,288    1411
58,777    106,334    1411
58,767    106,050    1414
58,757    106,325    1411
58,747    106,459    1409
58,737    106,403    1410
58,727    106,593    1407
58,717    106,607    1407
58,707    106,551    1408
58,697    106,810    1404
58,687    106,778    1405
58,677    106,616    1407
58,667    106,899    1403
58,657    106,477    1409
58,647    106,491    1409
58,637    106,123    1413
58,627    106,556    1408
58,617    106,288    1411
58,607    106,265    1412
58,597    106,284    1411
58,587    106,164    1413
58,577    106,330    1411
58,567    106,390    1410
58,557    106,123    1413
58,547    106,399    1410
58,537    106,275    1411
58,527    106,270    1411
58,517    106,473    1409
58,507    106,160    1413
58,497    106,353    1410
58,487    106,233    1412
58,477    106,256    1412
58,467    106,644    1407
58,457    106,233    1412
58,447    106,357    1410
58,437    106,210    1412
58,427    106,252    1412
58,417    106,436    1409
58,407    106,265    1412
58,397    106,367    1410
58,387    106,247    1412
58,377    106,109    1414
58,367    106,468    1409
58,357    106,477    1409
58,347    106,201    1412
58,337    106,380    1410
58,327    106,380    1410
58,317    106,486    1409
58,307    106,491    1409
58,297    106,119    1414
58,287    106,316    1411
58,277    106,307    1411
58,267    106,321    1411
58,257    106,445    1409
58,247    106,141    1413
58,237    106,408    1410
58,227    106,454    1409
58,217    106,242    1412
58,207    106,579    1407
58,197    106,100    1414
58,187    106,238    1412
58,177    106,376    1410
58,167    106,321    1411
58,157    106,371    1410
58,147    106,119    1414
58,137    106,169    1413
58,127    106,514    1408
58,117    106,119    1414
58,107    106,073    1414
58,097    106,270    1411
58,087    106,206    1412
58,077    106,607    1407
58,067    106,348    1410
58,057    106,206    1412
58,047    106,270    1411
58,037    106,233    1412
58,027    106,486    1409
58,017    106,468    1409
58,007    106,229    1412
57,997    106,325    1411
57,987    106,302    1411
57,977    106,519    1408
57,967    106,367    1410
57,957    106,132    1413
57,947    106,399    1410
57,937    106,293    1411
57,927    106,408    1410
57,917    106,445    1409
57,907    106,128    1413
57,897    106,293    1411
57,887    106,500    1408
57,877    106,123    1413
57,867    106,288    1411
57,857    106,201    1412
57,847    106,325    1411
57,837    106,353    1410
57,827    106,132    1413
57,817    106,413    1410
57,807    106,141    1413
57,797    106,325    1411
57,787    106,353    1410
57,777    106,109    1414
57,767    106,339    1411
57,757    106,394    1410
57,747    106,417    1410
57,737    106,445    1409
57,727    106,210    1412
57,717    106,431    1409
57,707    106,316    1411
57,697    106,265    1412
57,687    106,399    1410
57,677    106,293    1411
57,667    106,463    1409
57,657    106,164    1413
57,647    106,013    1415
57,637    106,454    1409
57,627    106,367    1410
57,617    106,187    1413
57,607    106,422    1409
57,597    106,357    1410
57,587    106,482    1409
57,577    106,413    1410
57,567    106,284    1411
57,557    106,445    1409
57,547    106,311    1411
57,537    106,403    1410
57,527    106,417    1410
57,517    106,270    1411
57,507    106,348    1410
57,497    106,357    1410
57,487    106,533    1408
57,477    106,611    1407
57,467    106,206    1412
57,457    106,247    1412
57,447    106,311    1411
57,437    106,325    1411
57,427    106,514    1408
57,417    106,197    1412
57,407    106,376    1410
57,397    106,491    1409
57,387    106,362    1410
57,377    106,473    1409
57,367    106,279    1411
57,357    106,463    1409
57,347    106,607    1407
57,337    106,362    1410
57,327    106,445    1409
57,317    106,160    1413
57,307    106,482    1409
57,297    106,463    1409
57,287    106,403    1410
57,277    106,403    1410
57,267    106,279    1411
57,257    106,284    1411
57,247    106,616    1407
57,237    106,486    1409
57,227    106,620    1407
57,217    106,330    1411
57,207    106,339    1411
57,197    106,778    1405
57,187    106,551    1408
57,177    106,413    1410
57,167    106,339    1411
57,157    106,468    1409
57,147    106,875    1404
57,137    106,579    1407
57,127    106,625    1407
57,117    106,667    1406
57,107    106,537    1408
57,097    106,903    1403
57,087    106,815    1404
57,077    106,667    1406
57,067    106,987    1402
57,057    107,108    1400
57,047    107,563    1395
57,037    107,029    1401
57,027    106,936    1403
57,017    107,169    1400
57,007    107,662    1393
56,997    109,504    1370
56,987    109,343    1372
