Z-Pos[um]|R[MOhm]|I[pA]
59,067    106,403    1410
59,057    106,653    1406
59,047    106,233    1412
59,037    106,376    1410
59,027    106,311    1411
59,017    106,197    1412
59,007    106,298    1411
58,997    106,141    1413
58,987    106,417    1410
58,977    106,242    1412
58,967    106,325    1411
58,957    106,311    1411
58,947    106,018    1415
58,937    106,463    1409
58,927    106,486    1409
58,917    106,201    1412
58,907    106,390    1410
58,897    106,284    1411
58,887    106,256    1412
58,877    106,473    1409
58,867    106,036    1415
58,857    106,288    1411
58,847    106,279    1411
58,837    106,625    1407
58,827    106,685    1406
58,817    106,160    1413
58,807    106,334    1411
58,797    106,556    1408
58,787    106,380    1410
58,777    106,109    1414
58,767    106,482    1409
58,757    106,362    1410
58,747    106,551    1408
58,737    106,560    1408
58,727    106,339    1411
58,717    106,431    1409
58,707    106,620    1407
58,697    106,644    1407
58,687    106,270    1411
58,677    106,215    1412
58,667    106,082    1414
58,657    106,468    1409
58,647    106,233    1412
58,637    106,155    1413
58,627    106,174    1413
58,617    106,348    1410
58,607    106,279    1411
58,597    106,013    1415
58,587    106,311    1411
58,577    106,004    1415
58,567    106,311    1411
58,557    106,229    1412
58,547    106,160    1413
58,537    106,362    1410
58,527    106,422    1409
58,517    106,302    1411
58,507    106,284    1411
58,497    106,013    1415
58,487    106,357    1410
58,477    106,293    1411
58,467    106,119    1414
58,457    106,201    1412
58,447    106,183    1413
58,437    106,219    1412
58,427    106,380    1410
58,417    106,183    1413
58,407    106,123    1413
58,397    106,875    1404
58,387    106,903    1403
58,377    106,528    1408
58,367    106,565    1408
58,357    106,806    1404
58,347    106,908    1403
58,337    106,417    1410
58,327    106,155    1413
58,317    106,390    1410
58,307    106,339    1411
58,297    106,468    1409
58,287    106,206    1412
58,277    106,137    1413
58,267    106,376    1410
58,257    106,160    1413
58,247    106,367    1410
58,237    106,413    1410
58,227    106,041    1415
58,217    106,334    1411
58,207    106,238    1412
58,197    106,114    1414
58,187    106,482    1409
58,177    106,022    1415
58,167    106,279    1411
58,157    106,491    1409
58,147    106,256    1412
58,137    106,298    1411
58,127    106,045    1414
58,117    106,201    1412
58,107    106,463    1409
58,097    106,279    1411
58,087    106,380    1410
58,077    106,091    1414
58,067    106,041    1415
58,057    106,348    1410
58,047    106,256    1412
58,037    106,583    1407
58,027    106,311    1411
58,017    106,247    1412
58,007    106,463    1409
57,997    106,298    1411
57,987    106,261    1412
57,977    106,275    1411
57,967    106,408    1410
57,957    106,422    1409
57,947    106,210    1412
57,937    106,247    1412
57,927    106,482    1409
57,917    106,197    1412
57,907    106,422    1409
57,897    106,500    1408
57,887    106,141    1413
57,877    106,302    1411
57,867    106,334    1411
57,857    106,403    1410
57,847    106,644    1407
57,837    106,362    1410
57,827    106,477    1409
57,817    106,792    1405
57,807    106,403    1410
57,797    106,417    1410
57,787    106,556    1408
57,777    106,477    1409
57,767    106,639    1407
57,757    106,583    1407
57,747    106,178    1413
57,737    106,206    1412
57,727    106,491    1409
57,717    106,068    1414
57,707    106,261    1412
57,697    106,261    1412
57,687    106,265    1412
57,677    106,630    1407
57,667    106,238    1412
57,657    106,334    1411
57,647    106,160    1413
57,637    106,426    1409
57,627    106,537    1408
57,617    106,224    1412
57,607    106,169    1413
57,597    106,192    1413
57,587    106,357    1410
57,577    106,537    1408
57,567    106,321    1411
57,557    106,256    1412
57,547    106,270    1411
57,537    106,325    1411
57,527    106,500    1408
57,517    106,334    1411
57,507    106,279    1411
57,497    106,459    1409
57,487    106,100    1414
57,477    106,630    1407
57,467    106,380    1410
57,457    106,187    1413
57,447    106,537    1408
57,437    106,119    1414
57,427    106,546    1408
57,417    106,491    1409
57,407    106,146    1413
57,397    106,528    1408
57,387    106,357    1410
57,377    106,579    1407
57,367    106,500    1408
57,357    106,215    1412
57,347    106,565    1408
57,337    106,477    1409
57,327    106,556    1408
57,317    106,394    1410
57,307    106,325    1411
57,297    106,477    1409
57,287    106,722    1406
57,277    106,362    1410
57,267    106,353    1410
57,257    106,496    1409
57,247    106,256    1412
57,237    106,792    1405
57,227    106,843    1404
57,217    106,482    1409
57,207    106,625    1407
57,197    106,413    1410
57,187    106,852    1404
57,177    106,625    1407
57,167    106,445    1409
57,157    106,927    1403
57,147    107,188    1399
57,137    106,894    1403
57,127    107,043    1401
57,117    107,596    1394
57,107    107,183    1399
57,097    106,992    1402
57,087    108,792    1379
57,077    113,076    1327
57,067    108,055    1388
57,057    112,122    1338
