Z-Pos[um]|R[MOhm]|I[pA]
59,056    106,583    1407
59,046    106,588    1407
59,036    106,247    1412
59,026    106,242    1412
59,016    106,334    1411
59,006    106,440    1409
58,996    106,224    1412
58,986    106,032    1415
58,976    106,265    1412
58,966    106,298    1411
58,956    106,436    1409
58,946    106,265    1412
58,936    106,137    1413
58,926    106,362    1410
58,916    106,210    1412
58,906    106,588    1407
58,896    106,662    1406
58,886    106,450    1409
58,876    106,787    1405
58,866    107,038    1401
58,856    106,978    1402
58,846    106,796    1405
58,836    106,732    1405
58,826    106,857    1404
58,816    106,861    1404
58,806    106,829    1404
58,796    107,001    1402
58,786    106,806    1404
58,776    106,759    1405
58,766    106,727    1405
58,756    107,127    1400
58,746    107,006    1402
58,736    106,583    1407
58,726    106,403    1410
58,716    106,399    1410
58,706    106,307    1411
58,696    106,367    1410
58,686    106,311    1411
58,676    106,302    1411
58,666    106,546    1408
58,656    106,155    1413
58,646    106,252    1412
58,636    106,367    1410
58,626    106,325    1411
58,616    106,436    1409
58,606    106,270    1411
58,596    106,233    1412
58,586    106,399    1410
58,576    106,105    1414
58,566    106,413    1410
58,556    106,339    1411
58,546    106,096    1414
58,536    106,380    1410
58,526    106,206    1412
58,516    106,376    1410
58,506    106,459    1409
58,496    106,045    1414
58,486    106,256    1412
58,476    106,357    1410
58,466    106,206    1412
58,456    106,454    1409
58,446    106,064    1414
58,436    106,353    1410
58,426    106,417    1410
58,416    106,252    1412
58,406    106,206    1412
58,396    106,491    1409
58,386    106,261    1412
58,376    106,477    1409
58,366    106,413    1410
58,356    106,229    1412
58,346    106,477    1409
58,336    106,394    1410
58,326    106,371    1410
58,316    106,537    1408
58,306    106,169    1413
58,296    106,431    1409
58,286    106,330    1411
58,276    106,371    1410
58,266    106,528    1408
58,256    106,096    1414
58,246    106,316    1411
58,236    106,183    1413
58,226    106,528    1408
58,216    106,644    1407
58,206    106,463    1409
58,196    106,505    1408
58,186    106,657    1406
58,176    106,505    1408
58,166    106,440    1409
58,156    106,551    1408
58,146    106,588    1407
58,136    106,579    1407
58,126    106,321    1411
58,116    106,215    1412
58,106    106,137    1413
58,096    106,597    1407
58,086    106,630    1407
58,076    106,704    1406
58,066    106,773    1405
58,056    106,403    1410
58,046    106,233    1412
58,036    106,431    1409
58,026    106,247    1412
58,016    106,367    1410
58,006    106,583    1407
57,996    106,141    1413
57,986    106,491    1409
57,976    106,197    1412
57,966    106,073    1414
57,956    106,431    1409
57,946    106,316    1411
57,936    106,413    1410
57,926    106,206    1412
57,916    106,330    1411
57,906    106,611    1407
57,896    106,330    1411
57,886    106,151    1413
57,876    106,325    1411
57,866    106,353    1410
57,856    106,602    1407
57,846    106,224    1412
57,836    106,233    1412
57,826    106,431    1409
57,816    106,155    1413
57,806    106,380    1410
57,796    106,445    1409
57,786    106,132    1413
57,776    106,380    1410
57,766    106,197    1412
57,756    106,450    1409
57,746    106,293    1411
57,736    106,082    1414
57,726    106,491    1409
57,716    106,385    1410
57,706    106,298    1411
57,696    106,385    1410
57,686    106,146    1413
57,676    106,496    1409
57,666    106,463    1409
57,656    106,523    1408
57,646    106,399    1410
57,636    106,178    1413
57,626    106,339    1411
57,616    106,625    1407
57,606    106,500    1408
57,596    106,380    1410
57,586    106,233    1412
57,576    106,367    1410
57,566    106,509    1408
57,556    106,238    1412
57,546    106,256    1412
57,536    106,210    1412
57,526    106,293    1411
57,516    106,917    1403
57,506    106,450    1409
57,496    106,146    1413
57,486    106,482    1409
57,476    106,215    1412
57,466    106,426    1409
57,456    106,371    1410
57,446    106,100    1414
57,436    106,607    1407
57,426    106,463    1409
57,416    106,128    1413
57,406    106,440    1409
57,396    106,500    1408
57,386    106,436    1409
57,376    106,473    1409
57,366    106,128    1413
57,356    106,681    1406
57,346    106,486    1409
57,336    106,588    1407
57,326    106,496    1409
57,316    106,219    1412
57,306    106,307    1411
57,296    106,537    1408
57,286    106,440    1409
57,276    106,546    1408
57,266    106,436    1409
57,256    106,422    1409
57,246    106,625    1407
57,236    106,602    1407
57,226    106,496    1409
57,216    106,542    1408
57,206    106,764    1405
57,196    106,630    1407
57,186    106,741    1405
57,176    106,450    1409
57,166    106,616    1407
57,156    106,894    1403
57,146    106,769    1405
57,136    106,597    1407
57,126    106,509    1408
57,116    106,894    1403
57,106    107,544    1395
57,096    107,010    1402
57,086    107,206    1399
57,076    114,509    1310
57,066    108,117    1387
57,056    109,558    1369
57,046    109,817    1366
