Z-Pos[um]|R[MOhm]|I[pA]
59,021    106,616    1407
59,011    106,834    1404
59,001    106,123    1413
58,991    106,426    1409
58,981    106,151    1413
58,971    106,321    1411
58,961    106,137    1413
58,951    106,082    1414
58,941    106,486    1409
58,931    106,311    1411
58,921    106,316    1411
58,911    106,164    1413
58,901    106,284    1411
58,891    106,593    1407
58,881    106,293    1411
58,871    106,298    1411
58,861    106,206    1412
58,851    106,109    1414
58,841    106,473    1409
58,831    106,261    1412
58,821    106,284    1411
58,811    106,279    1411
58,801    106,316    1411
58,791    106,542    1408
58,781    106,607    1407
58,771    106,284    1411
58,761    106,565    1408
58,751    106,699    1406
58,741    106,247    1412
58,731    106,376    1410
58,721    106,174    1413
58,711    106,160    1413
58,701    106,408    1410
58,691    106,192    1413
58,681    106,408    1410
58,671    106,252    1412
58,661    106,224    1412
58,651    106,413    1410
58,641    106,077    1414
58,631    106,238    1412
58,621    106,128    1413
58,611    106,233    1412
58,601    106,560    1408
58,591    106,100    1414
58,581    106,192    1413
58,571    106,325    1411
58,561    106,339    1411
58,551    106,657    1406
58,541    106,288    1411
58,531    106,123    1413
58,521    106,288    1411
58,511    106,302    1411
58,501    106,509    1408
58,491    106,417    1410
58,481    106,229    1412
58,471    106,376    1410
58,461    106,399    1410
58,451    106,639    1407
58,441    106,275    1411
58,431    106,505    1408
58,421    106,750    1405
58,411    106,533    1408
58,401    106,593    1407
58,391    106,505    1408
58,381    106,533    1408
58,371    106,468    1409
58,361    106,385    1410
58,351    106,119    1414
58,341    106,570    1408
58,331    106,570    1408
58,321    106,348    1410
58,311    106,588    1407
58,301    106,778    1405
58,291    106,773    1405
58,281    106,732    1405
58,271    106,362    1410
58,261    106,169    1413
58,251    106,077    1414
58,241    106,523    1408
58,231    106,151    1413
58,221    106,403    1410
58,211    106,247    1412
58,201    106,219    1412
58,191    106,413    1410
58,181    106,496    1409
58,171    106,164    1413
58,161    106,445    1409
58,151    106,201    1412
58,141    106,394    1410
58,131    106,394    1410
58,121    106,018    1415
58,111    106,413    1410
58,101    106,380    1410
58,091    106,293    1411
58,081    106,399    1410
58,071    106,146    1413
58,061    106,440    1409
58,051    106,330    1411
58,041    106,339    1411
58,031    106,284    1411
58,021    106,132    1413
58,011    106,394    1410
58,001    106,380    1410
57,991    106,284    1411
57,981    106,431    1409
57,971    106,311    1411
57,961    106,233    1412
57,951    106,431    1409
57,941    106,210    1412
57,931    106,206    1412
57,921    106,210    1412
57,911    106,183    1413
57,901    106,657    1406
57,891    106,068    1414
57,881    106,132    1413
57,871    106,174    1413
57,861    106,348    1410
57,851    106,639    1407
57,841    106,265    1412
57,831    106,293    1411
57,821    106,137    1413
57,811    106,252    1412
57,801    106,436    1409
57,791    106,201    1412
57,781    106,385    1410
57,771    106,362    1410
57,761    106,238    1412
57,751    106,408    1410
57,741    106,367    1410
57,731    106,330    1411
57,721    106,431    1409
57,711    106,229    1412
57,701    106,463    1409
57,691    106,625    1407
57,681    106,137    1413
57,671    106,371    1410
57,661    106,298    1411
57,651    106,380    1410
57,641    106,676    1406
57,631    106,151    1413
57,621    106,417    1410
57,611    106,141    1413
57,601    106,316    1411
57,591    106,556    1408
57,581    106,376    1410
57,571    106,546    1408
57,561    106,718    1406
57,551    106,533    1408
57,541    106,639    1407
57,531    106,936    1403
57,521    107,010    1402
57,511    106,769    1405
57,501    106,685    1406
57,491    107,020    1402
57,481    107,090    1401
57,471    106,690    1406
57,461    106,611    1407
57,451    106,792    1405
57,441    106,996    1402
57,431    106,759    1405
57,421    106,704    1406
57,411    106,722    1406
57,401    106,713    1406
57,391    106,325    1411
57,381    106,509    1408
57,371    106,261    1412
57,361    106,215    1412
57,351    106,463    1409
57,341    106,463    1409
57,331    106,468    1409
57,321    106,261    1412
57,311    106,367    1410
57,301    106,727    1405
57,291    106,500    1408
57,281    106,325    1411
57,271    106,542    1408
57,261    106,325    1411
57,251    106,708    1406
57,241    106,477    1409
57,231    106,399    1410
57,221    106,769    1405
57,211    106,542    1408
57,201    106,570    1408
57,191    106,676    1406
57,181    106,376    1410
57,171    106,741    1405
57,161    106,477    1409
57,151    106,630    1407
57,141    106,810    1404
57,131    106,671    1406
57,121    106,657    1406
57,111    106,773    1405
57,101    108,274    1385
57,091    107,206    1399
57,081    106,542    1408
57,071    107,253    1399
57,061    108,657    1380
57,051    107,789    1392
57,041    107,356    1397
57,031    107,441    1396
57,021    126,472    1186
57,011    116,034    1293
