Z-Pos[um]|R[MOhm]|I[pA]
59,011    106,362    1410
59,001    106,639    1407
58,991    106,357    1410
58,981    106,284    1411
58,971    106,233    1412
58,961    106,509    1408
58,951    106,630    1407
58,941    106,477    1409
58,931    106,431    1409
58,921    106,210    1412
58,911    106,119    1414
58,901    106,662    1406
58,891    106,174    1413
58,881    106,233    1412
58,871    106,178    1413
58,861    106,160    1413
58,851    106,486    1409
58,841    106,321    1411
58,831    106,201    1412
58,821    106,160    1413
58,811    106,284    1411
58,801    106,440    1409
58,791    106,362    1410
58,781    106,316    1411
58,771    106,187    1413
58,761    106,279    1411
58,751    106,542    1408
58,741    106,353    1410
58,731    106,224    1412
58,721    106,256    1412
58,711    106,247    1412
58,701    106,537    1408
58,691    106,339    1411
58,681    106,261    1412
58,671    106,348    1410
58,661    106,353    1410
58,651    106,325    1411
58,641    106,413    1410
58,631    106,054    1414
58,621    106,422    1409
58,611    106,477    1409
58,601    106,399    1410
58,591    106,468    1409
58,581    106,027    1415
58,571    106,330    1411
58,561    106,353    1410
58,551    106,353    1410
58,541    106,270    1411
58,531    106,132    1413
58,521    106,339    1411
58,511    106,279    1411
58,501    106,390    1410
58,491    106,215    1412
58,481    106,123    1413
58,471    106,376    1410
58,461    106,459    1409
58,451    106,293    1411
58,441    106,252    1412
58,431    106,183    1413
58,421    106,316    1411
58,411    106,302    1411
58,401    106,197    1412
58,391    106,450    1409
58,381    106,160    1413
58,371    106,325    1411
58,361    106,602    1407
58,351    106,091    1414
58,341    106,123    1413
58,331    106,146    1413
58,321    106,247    1412
58,311    106,491    1409
58,301    106,316    1411
58,291    106,123    1413
58,281    106,353    1410
58,271    106,224    1412
58,261    106,311    1411
58,251    106,256    1412
58,241    106,233    1412
58,231    106,330    1411
58,221    106,265    1412
58,211    106,357    1410
58,201    106,284    1411
58,191    106,123    1413
58,181    106,431    1409
58,171    106,256    1412
58,161    106,403    1410
58,151    106,583    1407
58,141    106,284    1411
58,131    106,491    1409
58,121    106,496    1409
58,111    106,362    1410
58,101    106,247    1412
58,091    106,068    1414
58,081    106,123    1413
58,071    106,357    1410
58,061    106,201    1412
58,051    106,344    1411
58,041    106,233    1412
58,031    106,128    1413
58,021    106,509    1408
58,011    106,252    1412
58,001    106,229    1412
57,991    106,367    1410
57,981    106,022    1415
57,971    106,459    1409
57,961    106,357    1410
57,951    106,192    1413
57,941    106,311    1411
57,931    106,311    1411
57,921    106,413    1410
57,911    106,399    1410
57,901    106,486    1409
57,891    106,537    1408
57,881    106,330    1411
57,871    106,380    1410
57,861    106,445    1409
57,851    105,945    1416
57,841    106,440    1409
57,831    106,523    1408
57,821    106,399    1410
57,811    106,376    1410
57,801    106,087    1414
57,791    106,353    1410
57,781    106,380    1410
57,771    106,459    1409
57,761    106,219    1412
57,751    106,279    1411
57,741    106,275    1411
57,731    106,390    1410
57,721    106,486    1409
57,711    106,486    1409
57,701    106,169    1413
57,691    106,238    1412
57,681    106,528    1408
57,671    106,197    1412
57,661    106,394    1410
57,651    106,146    1413
57,641    106,183    1413
57,631    106,500    1408
57,621    106,160    1413
57,611    106,413    1410
57,601    106,256    1412
57,591    106,252    1412
57,581    106,454    1409
57,571    106,288    1411
57,561    106,247    1412
57,551    106,210    1412
57,541    106,330    1411
57,531    106,459    1409
57,521    106,247    1412
57,511    106,100    1414
57,501    106,367    1410
57,491    106,256    1412
57,481    106,885    1403
57,471    106,362    1410
57,461    106,132    1413
57,451    106,537    1408
57,441    106,219    1412
57,431    106,579    1407
57,421    106,344    1411
57,411    107,174    1400
57,401    106,889    1403
57,391    106,806    1404
57,381    106,473    1409
57,371    106,371    1410
57,361    106,339    1411
57,351    106,583    1407
57,341    106,426    1409
57,331    106,201    1412
57,321    106,321    1411
57,311    106,468    1409
57,301    106,380    1410
57,291    106,533    1408
57,281    106,233    1412
57,271    106,556    1408
57,261    106,551    1408
57,251    106,593    1407
57,241    106,542    1408
57,231    106,141    1413
57,221    106,616    1407
57,211    106,593    1407
57,201    106,574    1407
57,191    106,978    1402
57,181    106,233    1412
57,171    106,657    1406
57,161    106,657    1406
57,151    106,694    1406
57,141    106,852    1404
57,131    106,482    1409
57,121    106,894    1403
57,111    107,174    1400
57,101    107,394    1397
57,091    106,597    1407
57,081    106,829    1404
57,071    108,628    1381
57,061    108,350    1384
57,051    106,913    1403
57,041    107,104    1401
57,031    108,566    1382
57,021    109,480    1370
57,011    108,460    1383
57,001    114,419    1311
