Z-Pos[um]|R[MOhm]|I[pA]
59,041    106,445    1409
59,031    106,861    1404
59,021    106,311    1411
59,011    106,542    1408
59,001    106,160    1413
58,991    106,330    1411
58,981    106,514    1408
58,971    106,468    1409
58,961    106,583    1407
58,951    106,602    1407
58,941    106,252    1412
58,931    106,463    1409
58,921    106,376    1410
58,911    106,100    1414
58,901    106,533    1408
58,891    106,468    1409
58,881    106,611    1407
58,871    106,325    1411
58,861    105,981    1415
58,851    106,270    1411
58,841    106,551    1408
58,831    106,367    1410
58,821    106,625    1407
58,811    106,164    1413
58,801    106,417    1410
58,791    106,454    1409
58,781    106,367    1410
58,771    106,210    1412
58,761    106,247    1412
58,751    106,344    1411
58,741    106,509    1408
58,731    106,500    1408
58,721    106,174    1413
58,711    106,270    1411
58,701    106,602    1407
58,691    106,413    1410
58,681    106,242    1412
58,671    106,426    1409
58,661    106,321    1411
58,651    106,394    1410
58,641    106,468    1409
58,631    106,100    1414
58,621    106,482    1409
58,611    106,473    1409
58,601    106,533    1408
58,591    106,353    1410
58,581    105,990    1415
58,571    106,834    1404
58,561    106,330    1411
58,551    106,570    1408
58,541    106,160    1413
58,531    106,408    1410
58,521    106,275    1411
58,511    106,252    1412
58,501    106,371    1410
58,491    106,050    1414
58,481    106,491    1409
58,471    106,197    1412
58,461    106,630    1407
58,451    106,634    1407
58,441    106,307    1411
58,431    106,219    1412
58,421    106,468    1409
58,411    106,523    1408
58,401    106,109    1414
58,391    106,450    1409
58,381    106,242    1412
58,371    106,252    1412
58,361    106,560    1408
58,351    106,546    1408
58,341    106,750    1405
58,331    106,773    1405
58,321    106,505    1408
58,311    106,077    1414
58,301    106,408    1410
58,291    106,657    1406
58,281    106,681    1406
58,271    106,755    1405
58,261    106,806    1404
58,251    106,815    1404
58,241    106,514    1408
58,231    106,348    1410
58,221    106,109    1414
58,211    106,362    1410
58,201    106,376    1410
58,191    106,551    1408
58,181    106,450    1409
58,171    106,169    1413
58,161    106,256    1412
58,151    106,523    1408
58,141    106,298    1411
58,131    106,394    1410
58,121    106,197    1412
58,111    106,087    1414
58,101    106,426    1409
58,091    106,265    1412
58,081    106,298    1411
58,071    106,238    1412
58,061    106,399    1410
58,051    106,431    1409
58,041    106,293    1411
58,031    106,293    1411
58,021    106,201    1412
58,011    106,325    1411
58,001    106,607    1407
57,991    106,408    1410
57,981    106,284    1411
57,971    106,321    1411
57,961    106,385    1410
57,951    106,704    1406
57,941    106,242    1412
57,931    106,307    1411
57,921    106,353    1410
57,911    106,123    1413
57,901    106,394    1410
57,891    106,482    1409
57,881    106,164    1413
57,871    106,486    1409
57,861    106,385    1410
57,851    106,560    1408
57,841    106,367    1410
57,831    106,077    1414
57,821    106,385    1410
57,811    106,390    1410
57,801    106,417    1410
57,791    106,408    1410
57,781    106,045    1414
57,771    106,431    1409
57,761    106,431    1409
57,751    106,399    1410
57,741    106,261    1412
57,731    106,238    1412
57,721    106,311    1411
57,711    106,486    1409
57,701    106,371    1410
57,691    106,325    1411
57,681    106,201    1412
57,671    106,302    1411
57,661    106,523    1408
57,651    106,293    1411
57,641    106,371    1410
57,631    106,077    1414
57,621    106,311    1411
57,611    106,376    1410
57,601    106,265    1412
57,591    106,321    1411
57,581    106,210    1412
57,571    106,307    1411
57,561    106,722    1406
57,551    106,183    1413
57,541    106,265    1412
57,531    106,316    1411
57,521    106,348    1410
57,511    106,597    1407
57,501    106,224    1412
57,491    106,316    1411
57,481    106,376    1410
57,471    106,325    1411
57,461    106,556    1408
57,451    106,321    1411
57,441    106,229    1412
57,431    106,459    1409
57,421    106,284    1411
57,411    106,546    1408
57,401    106,445    1409
57,391    106,174    1413
57,381    106,454    1409
57,371    106,426    1409
57,361    106,509    1408
57,351    106,620    1407
57,341    106,261    1412
57,331    106,602    1407
57,321    106,440    1409
57,311    106,514    1408
57,301    106,639    1407
57,291    106,215    1412
57,281    106,482    1409
57,271    106,417    1410
57,261    106,500    1408
57,251    106,607    1407
57,241    106,210    1412
57,231    106,523    1408
57,221    107,342    1397
57,211    106,866    1404
57,201    106,653    1406
57,191    106,987    1402
57,181    107,094    1401
57,171    106,913    1403
57,161    106,750    1405
57,151    106,945    1403
57,141    106,616    1407
57,131    106,792    1405
57,121    106,634    1407
57,111    107,001    1402
57,101    106,736    1405
57,091    106,620    1407
57,081    110,024    1363
57,071    106,542    1408
57,061    108,898    1377
57,051    107,804    1391
57,041    107,413    1396
57,031    108,317    1385
57,021    112,564    1333
