Z-Pos[um]|R[MOhm]|I[pA]
59,061    106,261    1412
59,051    107,024    1402
59,041    106,242    1412
59,031    106,473    1409
59,021    106,579    1407
59,011    106,174    1413
59,001    106,533    1408
58,991    106,270    1411
58,981    106,380    1410
58,971    106,602    1407
58,961    106,219    1412
58,951    106,399    1410
58,941    106,357    1410
58,931    106,436    1409
58,921    106,528    1408
58,911    106,256    1412
58,901    106,362    1410
58,891    106,607    1407
58,881    106,357    1410
58,871    106,325    1411
58,861    106,229    1412
58,851    106,316    1411
58,841    106,519    1408
58,831    106,164    1413
58,821    106,523    1408
58,811    106,279    1411
58,801    106,556    1408
58,791    106,523    1408
58,781    106,330    1411
58,771    106,736    1405
58,761    106,325    1411
58,751    106,210    1412
58,741    106,537    1408
58,731    106,137    1413
58,721    106,348    1410
58,711    106,500    1408
58,701    106,413    1410
58,691    106,653    1406
58,681    106,385    1410
58,671    106,137    1413
58,661    106,316    1411
58,651    106,242    1412
58,641    106,509    1408
58,631    106,261    1412
58,621    106,219    1412
58,611    106,486    1409
58,601    106,371    1410
58,591    106,565    1408
58,581    106,528    1408
58,571    106,247    1412
58,561    106,542    1408
58,551    106,321    1411
58,541    106,422    1409
58,531    106,634    1407
58,521    106,311    1411
58,511    106,473    1409
58,501    106,436    1409
58,491    106,422    1409
58,481    106,473    1409
58,471    106,119    1414
58,461    106,509    1408
58,451    106,334    1411
58,441    106,431    1409
58,431    106,445    1409
58,421    106,215    1412
58,411    106,463    1409
58,401    106,321    1411
58,391    106,450    1409
58,381    106,574    1407
58,371    106,302    1411
58,361    106,440    1409
58,351    106,556    1408
58,341    106,233    1412
58,331    106,334    1411
58,321    106,041    1415
58,311    106,105    1414
58,301    106,593    1407
58,291    106,307    1411
58,281    106,348    1410
58,271    106,275    1411
58,261    106,229    1412
58,251    106,732    1405
58,241    106,344    1411
58,231    106,334    1411
58,221    106,357    1410
58,211    106,298    1411
58,201    106,505    1408
58,191    106,298    1411
58,181    106,367    1410
58,171    106,348    1410
58,161    106,311    1411
58,151    106,325    1411
58,141    106,611    1407
58,131    106,362    1410
58,121    106,229    1412
58,111    106,570    1408
58,101    106,288    1411
58,091    106,436    1409
58,081    106,146    1413
58,071    106,316    1411
58,061    106,611    1407
58,051    106,247    1412
58,041    106,371    1410
58,031    106,215    1412
58,021    106,496    1409
58,011    106,551    1408
58,001    106,307    1411
57,991    106,496    1409
57,981    106,298    1411
57,971    106,270    1411
57,961    106,500    1408
57,951    106,367    1410
57,941    106,514    1408
57,931    106,394    1410
57,921    106,155    1413
57,911    106,570    1408
57,901    106,528    1408
57,891    106,068    1414
57,881    106,344    1411
57,871    106,565    1408
57,861    106,583    1407
57,851    106,602    1407
57,841    106,151    1413
57,831    106,574    1407
57,821    106,463    1409
57,811    106,500    1408
57,801    106,583    1407
57,791    106,174    1413
57,781    106,607    1407
57,771    106,602    1407
57,761    106,519    1408
57,751    106,399    1410
57,741    106,252    1412
57,731    106,385    1410
57,721    106,321    1411
57,711    106,546    1408
57,701    106,445    1409
57,691    106,394    1410
57,681    106,431    1409
57,671    106,454    1409
57,661    106,477    1409
57,651    106,560    1408
57,641    106,344    1411
57,631    106,348    1410
57,621    106,639    1407
57,611    106,436    1409
57,601    106,579    1407
57,591    106,367    1410
57,581    106,371    1410
57,571    106,732    1405
57,561    106,344    1411
57,551    106,496    1409
57,541    106,279    1411
57,531    106,454    1409
57,521    106,634    1407
57,511    106,417    1410
57,501    106,426    1409
57,491    106,459    1409
57,481    106,408    1410
57,471    106,546    1408
57,461    106,491    1409
57,451    106,284    1411
57,441    106,556    1408
57,431    106,380    1410
57,421    106,583    1407
57,411    106,491    1409
57,401    106,394    1410
57,391    106,450    1409
57,381    106,316    1411
57,371    106,699    1406
57,361    106,565    1408
57,351    106,302    1411
57,341    106,560    1408
57,331    106,463    1409
57,321    106,537    1408
57,311    106,542    1408
57,301    106,454    1409
57,291    106,759    1405
57,281    106,593    1407
57,271    106,565    1408
57,261    106,602    1407
57,251    106,413    1410
57,241    106,685    1406
57,231    106,815    1404
57,221    106,727    1405
57,211    106,778    1405
57,201    106,491    1409
57,191    106,699    1406
57,181    107,057    1401
57,171    106,880    1403
57,161    106,796    1405
57,151    106,625    1407
57,141    107,596    1394
57,131    108,069    1388
57,121    106,834    1404
57,111    107,413    1396
57,101    111,994    1339
57,091    107,427    1396
57,081    112,137    1338
57,071    110,315    1360
57,061    122,002    1229
