Z-Pos[um]|R[MOhm]|I[pA]
59,059    106,357    1410
59,049    106,583    1407
59,039    106,463    1409
59,029    106,160    1413
59,019    106,302    1411
59,009    106,519    1408
58,999    106,597    1407
58,989    106,408    1410
58,979    106,574    1407
58,969    106,417    1410
58,959    106,579    1407
58,949    106,588    1407
58,939    106,431    1409
58,929    106,288    1411
58,919    106,376    1410
58,909    106,514    1408
58,899    106,210    1412
58,889    106,265    1412
58,879    106,390    1410
58,869    106,486    1409
58,859    106,265    1412
58,849    106,450    1409
58,839    106,174    1413
58,829    106,265    1412
58,819    106,519    1408
58,809    106,219    1412
58,799    106,330    1411
58,789    106,187    1413
58,779    106,187    1413
58,769    106,565    1408
58,759    106,151    1413
58,749    106,242    1412
58,739    106,164    1413
58,729    106,275    1411
58,719    106,662    1406
58,709    106,178    1413
58,699    106,206    1412
58,689    106,229    1412
58,679    106,330    1411
58,669    106,523    1408
58,659    106,265    1412
58,649    106,128    1413
58,639    106,344    1411
58,629    106,270    1411
58,619    106,505    1408
58,609    106,321    1411
58,599    106,064    1414
58,589    106,523    1408
58,579    106,256    1412
58,569    106,417    1410
58,559    106,509    1408
58,549    106,137    1413
58,539    106,583    1407
58,529    106,174    1413
58,519    106,528    1408
58,509    106,579    1407
58,499    106,426    1409
58,489    106,316    1411
58,479    106,482    1409
58,469    106,265    1412
58,459    106,261    1412
58,449    106,302    1411
58,439    106,288    1411
58,429    106,570    1408
58,419    106,201    1412
58,409    106,187    1413
58,399    106,169    1413
58,389    106,247    1412
58,379    106,574    1407
58,369    106,206    1412
58,359    106,233    1412
58,349    106,238    1412
58,339    106,325    1411
58,329    106,523    1408
58,319    106,298    1411
58,309    106,270    1411
58,299    106,197    1412
58,289    106,307    1411
58,279    106,450    1409
58,269    106,302    1411
58,259    106,169    1413
58,249    106,440    1409
58,239    106,242    1412
58,229    106,588    1407
58,219    106,459    1409
58,209    106,137    1413
58,199    106,422    1409
58,189    106,201    1412
58,179    106,436    1409
58,169    106,422    1409
58,159    106,050    1414
58,149    106,376    1410
58,139    106,265    1412
58,129    106,229    1412
58,119    106,302    1411
58,109    106,073    1414
58,099    106,528    1408
58,089    106,344    1411
58,079    106,376    1410
58,069    106,450    1409
58,059    106,137    1413
58,049    106,422    1409
58,039    106,219    1412
58,029    106,639    1407
58,019    106,367    1410
58,009    106,192    1413
57,999    106,178    1413
57,989    106,440    1409
57,979    106,344    1411
57,969    106,339    1411
57,959    106,247    1412
57,949    106,160    1413
57,939    106,353    1410
57,929    106,155    1413
57,919    106,187    1413
57,909    106,275    1411
57,899    106,288    1411
57,889    106,491    1409
57,879    106,325    1411
57,869    106,128    1413
57,859    106,321    1411
57,849    106,137    1413
57,839    106,445    1409
57,829    106,413    1410
57,819    106,114    1414
57,809    106,252    1412
57,799    106,151    1413
57,789    106,417    1410
57,779    106,357    1410
57,769    106,082    1414
57,759    106,307    1411
57,749    106,325    1411
57,739    106,311    1411
57,729    106,275    1411
57,719    106,256    1412
57,709    106,436    1409
57,699    106,583    1407
57,689    106,380    1410
57,679    106,265    1412
57,669    106,321    1411
57,659    106,242    1412
57,649    106,473    1409
57,639    106,256    1412
57,629    106,551    1408
57,619    106,482    1409
57,609    106,787    1405
57,599    106,468    1409
57,589    106,732    1405
57,579    106,436    1409
57,569    106,293    1411
57,559    106,233    1412
57,549    106,367    1410
57,539    106,316    1411
57,529    106,229    1412
57,519    106,307    1411
57,509    106,422    1409
57,499    106,542    1408
57,489    106,408    1410
57,479    106,565    1408
57,469    106,509    1408
57,459    106,371    1410
57,449    106,256    1412
57,439    106,417    1410
57,429    106,123    1413
57,419    106,533    1408
57,409    106,593    1407
57,399    106,229    1412
57,389    106,325    1411
57,379    106,174    1413
57,369    106,468    1409
57,359    106,570    1408
57,349    106,353    1410
57,339    106,348    1410
57,329    106,551    1408
57,319    106,486    1409
57,309    106,380    1410
57,299    106,394    1410
57,289    106,486    1409
57,279    106,801    1404
57,269    106,806    1404
57,259    106,477    1409
57,249    106,533    1408
57,239    106,533    1408
57,229    106,537    1408
57,219    106,616    1407
57,209    106,376    1410
57,199    106,491    1409
57,189    106,899    1403
57,179    106,607    1407
57,169    106,422    1409
57,159    106,861    1404
57,149    107,132    1400
57,139    106,792    1405
57,129    106,852    1404
57,119    107,965    1389
57,109    107,535    1395
57,099    106,954    1402
57,089    107,323    1398
57,079    121,651    1233
57,069    108,556    1382
57,059    146,986    1021
