Z-Pos[um]|R[MOhm]|I[pA]
59,001    106,288    1411
58,991    106,936    1403
58,981    106,164    1413
58,971    106,275    1411
58,961    106,279    1411
58,951    106,197    1412
58,941    106,514    1408
58,931    106,307    1411
58,921    106,325    1411
58,911    106,151    1413
58,901    106,275    1411
58,891    106,390    1410
58,881    106,119    1414
58,871    106,252    1412
58,861    106,096    1414
58,851    106,238    1412
58,841    106,417    1410
58,831    106,275    1411
58,821    106,256    1412
58,811    106,242    1412
58,801    106,229    1412
58,791    106,468    1409
58,781    106,394    1410
58,771    106,087    1414
58,761    106,311    1411
58,751    106,344    1411
58,741    106,523    1408
58,731    106,422    1409
58,721    106,187    1413
58,711    106,422    1409
58,701    106,417    1410
58,691    106,394    1410
58,681    106,607    1407
58,671    106,436    1409
58,661    106,473    1409
58,651    106,769    1405
58,641    106,500    1408
58,631    106,477    1409
58,621    106,704    1406
58,611    106,574    1407
58,601    106,450    1409
58,591    106,440    1409
58,581    106,436    1409
58,571    106,307    1411
58,561    106,459    1409
58,551    106,284    1411
58,541    106,187    1413
58,531    106,376    1410
58,521    106,256    1412
58,511    106,454    1409
58,501    106,436    1409
58,491    106,408    1410
58,481    106,662    1406
58,471    106,727    1405
58,461    106,588    1407
58,451    106,579    1407
58,441    106,505    1408
58,431    106,542    1408
58,421    106,509    1408
58,411    106,302    1411
58,401    106,192    1413
58,391    106,256    1412
58,381    106,229    1412
58,371    106,321    1411
58,361    106,496    1409
58,351    106,091    1414
58,341    106,473    1409
58,331    106,380    1410
58,321    106,426    1409
58,311    106,376    1410
58,301    105,995    1415
58,291    106,450    1409
58,281    106,403    1410
58,271    106,206    1412
58,261    106,399    1410
58,251    106,119    1414
58,241    106,371    1410
58,231    106,436    1409
58,221    106,160    1413
58,211    106,219    1412
58,201    106,082    1414
58,191    106,229    1412
58,181    106,570    1408
58,171    106,187    1413
58,161    106,219    1412
58,151    106,265    1412
58,141    106,242    1412
58,131    106,482    1409
58,121    106,219    1412
58,111    106,261    1412
58,101    106,390    1410
58,091    106,219    1412
58,081    106,431    1409
58,071    106,238    1412
58,061    106,233    1412
58,051    106,367    1410
58,041    106,265    1412
58,031    106,302    1411
58,021    106,339    1411
58,011    106,252    1412
58,001    106,408    1410
57,991    106,155    1413
57,981    106,431    1409
57,971    106,371    1410
57,961    106,077    1414
57,951    106,353    1410
57,941    106,284    1411
57,931    106,376    1410
57,921    106,546    1408
57,911    106,307    1411
57,901    106,293    1411
57,891    106,385    1410
57,881    106,339    1411
57,871    106,588    1407
57,861    106,128    1413
57,851    106,238    1412
57,841    106,426    1409
57,831    106,215    1412
57,821    106,514    1408
57,811    106,160    1413
57,801    106,183    1413
57,791    106,523    1408
57,781    106,197    1412
57,771    106,210    1412
57,761    106,164    1413
57,751    106,353    1410
57,741    106,917    1403
57,731    106,316    1411
57,721    106,151    1413
57,711    106,316    1411
57,701    106,242    1412
57,691    106,431    1409
57,681    106,440    1409
57,671    106,334    1411
57,661    106,403    1410
57,651    106,565    1408
57,641    106,602    1407
57,631    106,132    1413
57,621    106,463    1409
57,611    106,238    1412
57,601    106,509    1408
57,591    106,367    1410
57,581    106,169    1413
57,571    106,445    1409
57,561    106,445    1409
57,551    106,413    1410
57,541    106,321    1411
57,531    106,164    1413
57,521    106,644    1407
57,511    106,339    1411
57,501    106,321    1411
57,491    106,477    1409
57,481    106,293    1411
57,471    106,288    1411
57,461    106,408    1410
57,451    106,325    1411
57,441    106,630    1407
57,431    106,537    1408
57,421    106,519    1408
57,411    106,736    1405
57,401    106,834    1404
57,391    106,284    1411
57,381    106,880    1403
57,371    106,611    1407
57,361    106,509    1408
57,351    106,334    1411
57,341    106,362    1410
57,331    106,413    1410
57,321    106,570    1408
57,311    106,560    1408
57,301    106,607    1407
57,291    106,755    1405
57,281    106,769    1405
57,271    106,362    1410
57,261    106,265    1412
57,251    106,454    1409
57,241    106,477    1409
57,231    107,300    1398
57,221    107,234    1399
57,211    107,071    1401
57,201    107,136    1400
57,191    106,954    1402
57,181    107,150    1400
57,171    106,519    1408
57,161    106,565    1408
57,151    106,894    1403
57,141    106,750    1405
57,131    106,450    1409
57,121    106,927    1403
57,111    106,903    1403
57,101    106,843    1404
57,091    106,848    1404
57,081    106,931    1403
57,071    107,015    1402
57,061    107,132    1400
57,051    108,198    1386
57,041    107,761    1392
57,031    107,610    1394
57,021    108,518    1382
57,011    145,317    1032
