Z-Pos[um]|R[MOhm]|I[pA]
59,061    106,436    1409
59,051    106,583    1407
59,041    106,316    1411
59,031    106,551    1408
59,021    106,509    1408
59,011    106,311    1411
59,001    106,233    1412
58,991    106,256    1412
58,981    106,519    1408
58,971    106,417    1410
58,961    106,426    1409
58,951    106,477    1409
58,941    106,625    1407
58,931    106,473    1409
58,921    106,311    1411
58,911    106,505    1408
58,901    106,137    1413
58,891    106,583    1407
58,881    106,155    1413
58,871    106,473    1409
58,861    106,123    1413
58,851    106,082    1414
58,841    106,514    1408
58,831    106,325    1411
58,821    106,445    1409
58,811    106,096    1414
58,801    106,229    1412
58,791    106,509    1408
58,781    106,311    1411
58,771    106,357    1410
58,761    106,192    1413
58,751    106,482    1409
58,741    106,667    1406
58,731    106,445    1409
58,721    106,265    1412
58,711    106,648    1406
58,701    106,616    1407
58,691    106,417    1410
58,681    106,252    1412
58,671    106,265    1412
58,661    106,385    1410
58,651    106,644    1407
58,641    106,325    1411
58,631    106,151    1413
58,621    106,261    1412
58,611    106,229    1412
58,601    106,399    1410
58,591    106,436    1409
58,581    106,252    1412
58,571    106,357    1410
58,561    106,265    1412
58,551    106,394    1410
58,541    106,210    1412
58,531    106,105    1414
58,521    106,611    1407
58,511    106,759    1405
58,501    107,394    1397
58,491    106,597    1407
58,481    106,357    1410
58,471    106,321    1411
58,461    106,496    1409
58,451    106,215    1412
58,441    106,468    1409
58,431    106,413    1410
58,421    106,247    1412
58,411    106,505    1408
58,401    106,229    1412
58,391    106,477    1409
58,381    106,380    1410
58,371    106,279    1411
58,361    106,367    1410
58,351    106,114    1414
58,341    106,463    1409
58,331    106,634    1407
58,321    106,197    1412
58,311    106,403    1410
58,301    106,123    1413
58,291    106,325    1411
58,281    106,348    1410
58,271    106,151    1413
58,261    106,252    1412
58,251    106,256    1412
58,241    106,252    1412
58,231    106,261    1412
58,221    106,505    1408
58,211    106,667    1406
58,201    106,224    1412
58,191    106,528    1408
58,181    106,247    1412
58,171    106,491    1409
58,161    106,330    1411
58,151    106,174    1413
58,141    106,533    1408
58,131    106,261    1412
58,121    106,454    1409
58,111    106,385    1410
58,101    106,114    1414
58,091    106,408    1410
58,081    106,288    1411
58,071    106,293    1411
58,061    106,321    1411
58,051    106,307    1411
58,041    106,671    1406
58,031    107,347    1397
58,021    106,261    1412
58,011    106,247    1412
58,001    106,509    1408
57,991    106,187    1413
57,981    106,275    1411
57,971    106,215    1412
57,961    106,247    1412
57,951    106,644    1407
57,941    106,311    1411
57,931    106,302    1411
57,921    106,247    1412
57,911    106,311    1411
57,901    106,611    1407
57,891    106,275    1411
57,881    106,491    1409
57,871    106,339    1411
57,861    106,229    1412
57,851    106,565    1408
57,841    106,261    1412
57,831    106,307    1411
57,821    106,450    1409
57,811    106,197    1412
57,801    106,463    1409
57,791    106,463    1409
57,781    106,362    1410
57,771    106,215    1412
57,761    106,486    1409
57,751    106,298    1411
57,741    106,394    1410
57,731    106,219    1412
57,721    106,197    1412
57,711    106,477    1409
57,701    106,270    1411
57,691    106,288    1411
57,681    106,242    1412
57,671    106,371    1410
57,661    106,829    1404
57,651    106,344    1411
57,641    106,344    1411
57,631    106,164    1413
57,621    106,523    1408
57,611    106,588    1407
57,601    106,298    1411
57,591    106,321    1411
57,581    106,353    1410
57,571    106,256    1412
57,561    106,445    1409
57,551    106,367    1410
57,541    106,256    1412
57,531    106,574    1407
57,521    106,394    1410
57,511    106,509    1408
57,501    106,482    1409
57,491    106,302    1411
57,481    106,477    1409
57,471    106,279    1411
57,461    106,477    1409
57,451    106,551    1408
57,441    106,169    1413
57,431    106,519    1408
57,421    106,367    1410
57,411    106,533    1408
57,401    106,533    1408
57,391    106,339    1411
57,381    106,574    1407
57,371    106,597    1407
57,361    106,445    1409
57,351    106,713    1406
57,341    106,546    1408
57,331    106,390    1410
57,321    106,574    1407
57,311    106,491    1409
57,301    106,556    1408
57,291    106,528    1408
57,281    106,357    1410
57,271    106,685    1406
57,261    106,454    1409
57,251    106,505    1408
57,241    106,602    1407
57,231    106,528    1408
57,221    106,732    1405
57,211    106,570    1408
57,201    106,426    1409
57,191    106,829    1404
57,181    106,681    1406
57,171    106,834    1404
57,161    106,871    1404
57,151    106,630    1407
57,141    106,861    1404
57,131    106,745    1405
57,121    108,131    1387
57,111    107,549    1395
57,101    107,272    1398
57,091    108,758    1379
57,081    108,083    1388
57,071    108,221    1386
57,061    110,350    1359
