Z-Pos[um]|R[MOhm]|I[pA]
59,096    106,201    1412
59,086    106,806    1404
59,076    106,261    1412
59,066    106,068    1414
59,056    106,505    1408
59,046    106,436    1409
59,036    106,284    1411
59,026    106,459    1409
59,016    106,256    1412
59,006    106,109    1414
58,996    106,537    1408
58,986    106,288    1411
58,976    106,279    1411
58,966    106,151    1413
58,956    106,463    1409
58,946    106,722    1406
58,936    106,426    1409
58,926    106,565    1408
58,916    106,514    1408
58,906    106,616    1407
58,896    106,565    1408
58,886    106,376    1410
58,876    106,137    1413
58,866    106,482    1409
58,856    106,275    1411
58,846    106,128    1413
58,836    106,307    1411
58,826    106,128    1413
58,816    106,325    1411
58,806    106,519    1408
58,796    106,219    1412
58,786    106,307    1411
58,776    106,123    1413
58,766    106,344    1411
58,756    106,380    1410
58,746    106,123    1413
58,736    106,307    1411
58,726    106,201    1412
58,716    106,128    1413
58,706    106,454    1409
58,696    106,367    1410
58,686    106,362    1410
58,676    106,256    1412
58,666    106,192    1413
58,656    106,440    1409
58,646    106,192    1413
58,636    106,114    1414
58,626    106,362    1410
58,616    106,399    1410
58,606    106,344    1411
58,596    106,334    1411
58,586    106,187    1413
58,576    106,385    1410
58,566    106,261    1412
58,556    106,321    1411
58,546    106,169    1413
58,536    106,261    1412
58,526    106,298    1411
58,516    106,238    1412
58,506    106,468    1409
58,496    106,459    1409
58,486    106,054    1414
58,476    106,330    1411
58,466    106,279    1411
58,456    106,390    1410
58,446    106,426    1409
58,436    106,091    1414
58,426    106,183    1413
58,416    106,219    1412
58,406    106,339    1411
58,396    106,533    1408
58,386    106,160    1413
58,376    106,362    1410
58,366    106,275    1411
58,356    106,279    1411
58,346    106,321    1411
58,336    106,132    1413
58,326    106,353    1410
58,316    106,426    1409
58,306    106,128    1413
58,296    106,238    1412
58,286    106,123    1413
58,276    106,275    1411
58,266    106,321    1411
58,256    106,252    1412
58,246    106,459    1409
58,236    106,155    1413
58,226    106,123    1413
58,216    106,339    1411
58,206    106,293    1411
58,196    106,247    1412
58,186    106,413    1410
58,176    106,206    1412
58,166    106,367    1410
58,156    106,367    1410
58,146    106,284    1411
58,136    106,463    1409
58,126    106,141    1413
58,116    106,371    1410
58,106    106,233    1412
58,096    106,215    1412
58,086    106,288    1411
58,076    106,348    1410
58,066    106,408    1410
58,056    106,169    1413
58,046    106,229    1412
58,036    106,505    1408
58,026    106,293    1411
58,016    106,219    1412
58,006    106,275    1411
57,996    106,054    1414
57,986    106,252    1412
57,976    106,325    1411
57,966    106,445    1409
57,956    106,270    1411
57,946    106,174    1413
57,936    106,357    1410
57,926    106,454    1409
57,916    106,298    1411
57,906    106,293    1411
57,896    106,229    1412
57,886    106,183    1413
57,876    106,394    1410
57,866    106,123    1413
57,856    106,293    1411
57,846    106,128    1413
57,836    106,357    1410
57,826    106,454    1409
57,816    106,192    1413
57,806    106,473    1409
57,796    106,187    1413
57,786    106,546    1408
57,776    106,454    1409
57,766    106,284    1411
57,756    106,454    1409
57,746    106,362    1410
57,736    106,445    1409
57,726    106,496    1409
57,716    106,316    1411
57,706    106,270    1411
57,696    106,417    1410
57,686    106,325    1411
57,676    106,353    1410
57,666    106,431    1409
57,656    106,192    1413
57,646    106,334    1411
57,636    106,385    1410
57,626    106,445    1409
57,616    106,321    1411
57,606    106,183    1413
57,596    106,385    1410
57,586    106,302    1411
57,576    106,403    1410
57,566    106,537    1408
57,556    106,293    1411
57,546    106,293    1411
57,536    106,436    1409
57,526    106,450    1409
57,516    106,657    1406
57,506    106,238    1412
57,496    106,174    1413
57,486    106,486    1409
57,476    106,380    1410
57,466    106,330    1411
57,456    106,128    1413
57,446    106,233    1412
57,436    107,001    1402
57,426    106,376    1410
57,416    106,197    1412
57,406    106,311    1411
57,396    106,611    1407
57,386    106,316    1411
57,376    106,288    1411
57,366    106,417    1410
57,356    106,252    1412
57,346    106,459    1409
57,336    106,496    1409
57,326    106,256    1412
57,316    106,583    1407
57,306    106,385    1410
57,296    106,583    1407
57,286    106,741    1405
57,276    106,362    1410
57,266    106,602    1407
57,256    106,339    1411
57,246    106,500    1408
57,236    106,982    1402
57,226    106,270    1411
57,216    106,422    1409
57,206    107,291    1398
57,196    106,783    1405
57,186    106,838    1404
57,176    106,783    1405
57,166    107,020    1402
57,156    107,132    1400
57,146    107,206    1399
57,136    106,704    1406
57,126    107,174    1400
57,116    107,038    1401
57,106    107,837    1391
57,096    108,835    1378
57,086    107,733    1392
57,076    107,202    1399
57,066    269,415    557
57,056    115,946    1294
