Z-Pos[um]|R[MOhm]|I[pA]
59,061    106,496    1409
59,051    106,602    1407
59,041    106,436    1409
59,031    106,426    1409
59,021    106,242    1412
59,011    106,454    1409
59,001    106,307    1411
58,991    106,265    1412
58,981    106,459    1409
58,971    106,270    1411
58,961    106,265    1412
58,951    106,252    1412
58,941    106,137    1413
58,931    106,450    1409
58,921    106,778    1405
58,911    106,718    1406
58,901    106,941    1403
58,891    107,300    1398
58,881    107,090    1401
58,871    106,583    1407
58,861    106,119    1414
58,851    106,417    1410
58,841    106,229    1412
58,831    106,685    1406
58,821    106,399    1410
58,811    106,174    1413
58,801    106,523    1408
58,791    106,676    1406
58,781    106,551    1408
58,771    106,899    1403
58,761    106,644    1407
58,751    106,353    1410
58,741    106,091    1414
58,731    106,380    1410
58,721    106,394    1410
58,711    106,450    1409
58,701    106,422    1409
58,691    106,146    1413
58,681    106,440    1409
58,671    106,533    1408
58,661    106,390    1410
58,651    106,344    1411
58,641    106,123    1413
58,631    106,440    1409
58,621    106,380    1410
58,611    106,602    1407
58,601    106,551    1408
58,591    106,041    1415
58,581    106,436    1409
58,571    106,477    1409
58,561    106,408    1410
58,551    106,792    1405
58,541    106,146    1413
58,531    106,408    1410
58,521    106,616    1407
58,511    106,344    1411
58,501    106,275    1411
58,491    106,091    1414
58,481    106,068    1414
58,471    106,403    1410
58,461    106,252    1412
58,451    106,436    1409
58,441    106,321    1411
58,431    106,219    1412
58,421    106,445    1409
58,411    106,233    1412
58,401    106,344    1411
58,391    106,367    1410
58,381    106,293    1411
58,371    106,556    1408
58,361    106,293    1411
58,351    106,348    1410
58,341    106,307    1411
58,331    106,348    1410
58,321    106,450    1409
58,311    106,477    1409
58,301    106,087    1414
58,291    106,408    1410
58,281    106,459    1409
58,271    106,810    1404
58,261    106,321    1411
58,251    106,450    1409
58,241    106,473    1409
58,231    106,829    1404
58,221    107,043    1401
58,211    107,132    1400
58,201    106,694    1406
58,191    106,620    1407
58,181    106,607    1407
58,171    106,546    1408
58,161    106,344    1411
58,151    106,302    1411
58,141    106,436    1409
58,131    106,215    1412
58,121    106,625    1407
58,111    106,261    1412
58,101    106,699    1406
58,091    106,690    1406
58,081    106,247    1412
58,071    106,579    1407
58,061    106,570    1408
58,051    106,164    1413
58,041    106,367    1410
58,031    106,403    1410
58,021    106,403    1410
58,011    106,436    1409
58,001    106,380    1410
57,991    106,128    1413
57,981    106,454    1409
57,971    106,445    1409
57,961    106,454    1409
57,951    106,445    1409
57,941    106,054    1414
57,931    106,288    1411
57,921    106,533    1408
57,911    106,371    1410
57,901    106,334    1411
57,891    106,192    1413
57,881    106,371    1410
57,871    106,625    1407
57,861    106,413    1410
57,851    106,445    1409
57,841    106,151    1413
57,831    106,316    1411
57,821    106,477    1409
57,811    106,440    1409
57,801    106,482    1409
57,791    106,206    1412
57,781    106,233    1412
57,771    106,445    1409
57,761    106,210    1412
57,751    106,293    1411
57,741    106,367    1410
57,731    106,265    1412
57,721    106,579    1407
57,711    106,330    1411
57,701    106,357    1410
57,691    106,380    1410
57,681    106,247    1412
57,671    106,685    1406
57,661    106,357    1410
57,651    106,311    1411
57,641    106,265    1412
57,631    106,279    1411
57,621    106,542    1408
57,611    106,385    1410
57,601    106,348    1410
57,591    106,450    1409
57,581    106,169    1413
57,571    106,745    1405
57,561    106,565    1408
57,551    106,302    1411
57,541    106,422    1409
57,531    106,380    1410
57,521    106,533    1408
57,511    106,519    1408
57,501    106,160    1413
57,491    106,491    1409
57,481    106,390    1410
57,471    106,473    1409
57,461    106,403    1410
57,451    106,197    1412
57,441    106,597    1407
57,431    106,519    1408
57,421    106,440    1409
57,411    106,505    1408
57,401    106,210    1412
57,391    106,390    1410
57,381    106,676    1406
57,371    106,486    1409
57,361    106,630    1407
57,351    106,394    1410
57,341    106,417    1410
57,331    106,639    1407
57,321    106,417    1410
57,311    106,583    1407
57,301    106,334    1411
57,291    106,417    1410
57,281    106,648    1406
57,271    106,648    1406
57,261    106,634    1407
57,251    106,625    1407
57,241    106,362    1410
57,231    106,787    1405
57,221    106,908    1403
57,211    106,796    1405
57,201    106,806    1404
57,191    106,667    1406
57,181    106,570    1408
57,171    106,509    1408
57,161    106,704    1406
57,151    106,978    1402
57,141    106,982    1402
57,131    106,528    1408
57,121    106,978    1402
57,111    108,417    1384
57,101    107,150    1400
57,091    107,389    1397
57,081    108,604    1381
57,071    108,126    1387
57,061    110,533    1357
