Z-Pos[um]|R[MOhm]|I[pA]
59,042    106,588    1407
59,032    106,927    1403
59,022    106,537    1408
59,012    106,380    1410
59,002    106,059    1414
58,992    106,105    1414
58,982    106,570    1408
58,972    106,371    1410
58,962    106,219    1412
58,952    106,380    1410
58,942    106,348    1410
58,932    106,639    1407
58,922    106,528    1408
58,912    106,187    1413
58,902    106,362    1410
58,892    106,256    1412
58,882    106,302    1411
58,872    106,546    1408
58,862    106,261    1412
58,852    106,399    1410
58,842    106,256    1412
58,832    106,344    1411
58,822    106,473    1409
58,812    106,169    1413
58,802    106,380    1410
58,792    106,215    1412
58,782    106,307    1411
58,772    106,436    1409
58,762    106,164    1413
58,752    106,422    1409
58,742    106,284    1411
58,732    106,210    1412
58,722    106,436    1409
58,712    106,169    1413
58,702    106,482    1409
58,692    106,399    1410
58,682    106,247    1412
58,672    106,344    1411
58,662    106,027    1415
58,652    106,242    1412
58,642    106,431    1409
58,632    106,302    1411
58,622    106,270    1411
58,612    106,197    1412
58,602    106,146    1413
58,592    106,528    1408
58,582    106,293    1411
58,572    106,261    1412
58,562    106,164    1413
58,552    106,109    1414
58,542    106,417    1410
58,532    106,344    1411
58,522    106,357    1410
58,512    106,279    1411
58,502    106,325    1411
58,492    106,367    1410
58,482    106,316    1411
58,472    106,215    1412
58,462    106,325    1411
58,452    106,252    1412
58,442    106,496    1409
58,432    106,252    1412
58,422    106,422    1409
58,412    106,634    1407
58,402    106,482    1409
58,392    106,523    1408
58,382    106,570    1408
58,372    106,486    1409
58,362    106,630    1407
58,352    106,764    1405
58,342    106,560    1408
58,332    106,380    1410
58,322    106,357    1410
58,312    106,219    1412
58,302    106,339    1411
58,292    106,436    1409
58,282    106,160    1413
58,272    106,514    1408
58,262    106,229    1412
58,252    106,233    1412
58,242    106,533    1408
58,232    106,201    1412
58,222    106,298    1411
58,212    106,505    1408
58,202    106,279    1411
58,192    106,376    1410
58,182    106,119    1414
58,172    105,958    1416
58,162    106,431    1409
58,152    106,174    1413
58,142    106,321    1411
58,132    106,288    1411
58,122    106,252    1412
58,112    106,399    1410
58,102    106,298    1411
58,092    106,233    1412
58,082    106,219    1412
58,072    106,325    1411
58,062    106,394    1410
58,052    106,155    1413
58,042    106,316    1411
58,032    106,242    1412
58,022    106,164    1413
58,012    106,399    1410
58,002    106,183    1413
57,992    106,265    1412
57,982    106,408    1410
57,972    106,556    1408
57,962    106,653    1406
57,952    106,685    1406
57,942    106,141    1413
57,932    106,367    1410
57,922    106,477    1409
57,912    106,339    1411
57,902    106,247    1412
57,892    106,155    1413
57,882    106,440    1409
57,872    106,477    1409
57,862    106,247    1412
57,852    106,408    1410
57,842    106,109    1414
57,832    106,440    1409
57,822    106,815    1404
57,812    106,528    1408
57,802    106,537    1408
57,792    106,408    1410
57,782    106,169    1413
57,772    106,330    1411
57,762    106,321    1411
57,752    106,064    1414
57,742    106,440    1409
57,732    106,242    1412
57,722    106,265    1412
57,712    106,593    1407
57,702    106,219    1412
57,692    106,298    1411
57,682    106,403    1410
57,672    106,376    1410
57,662    106,334    1411
57,652    106,233    1412
57,642    106,330    1411
57,632    106,459    1409
57,622    106,123    1413
57,612    106,431    1409
57,602    106,265    1412
57,592    106,059    1414
57,582    106,602    1407
57,572    106,160    1413
57,562    106,348    1410
57,552    106,183    1413
57,542    106,330    1411
57,532    106,486    1409
57,522    106,353    1410
57,512    106,210    1412
57,502    106,164    1413
57,492    106,321    1411
57,482    106,505    1408
57,472    106,270    1411
57,462    106,146    1413
57,452    106,321    1411
57,442    106,265    1412
57,432    106,542    1408
57,422    106,500    1408
57,412    106,164    1413
57,402    106,445    1409
57,392    106,339    1411
57,382    106,413    1410
57,372    106,537    1408
57,362    106,201    1412
57,352    106,523    1408
57,342    106,344    1411
57,332    106,496    1409
57,322    106,459    1409
57,312    106,100    1414
57,302    106,574    1407
57,292    106,344    1411
57,282    106,583    1407
57,272    106,644    1407
57,262    106,417    1410
57,252    106,403    1410
57,242    106,570    1408
57,232    106,745    1405
57,222    106,496    1409
57,212    106,630    1407
57,202    106,903    1403
57,192    106,648    1406
57,182    106,376    1410
57,172    106,861    1404
57,162    106,662    1406
57,152    106,644    1407
57,142    106,875    1404
57,132    106,866    1404
57,122    106,889    1403
57,112    106,829    1404
57,102    107,183    1399
57,092    107,799    1391
57,082    106,848    1404
57,072    107,309    1398
57,062    108,422    1383
57,052    109,480    1370
57,042    108,093    1388
57,032    496,485    302
57,022    114,095    1315
