Z-Pos[um]|R[MOhm]|I[pA]
59,047    106,362    1410
59,037    106,834    1404
59,027    106,339    1411
59,017    106,325    1411
59,007    106,219    1412
58,997    106,247    1412
58,987    106,574    1407
58,977    106,192    1413
58,967    106,284    1411
58,957    106,201    1412
58,947    106,132    1413
58,937    106,385    1410
58,927    106,050    1414
58,917    106,293    1411
58,907    106,215    1412
58,897    106,187    1413
58,887    106,625    1407
58,877    106,206    1412
58,867    106,885    1403
58,857    106,238    1412
58,847    106,496    1409
58,837    106,348    1410
58,827    106,302    1411
58,817    106,247    1412
58,807    106,293    1411
58,797    106,519    1408
58,787    106,242    1412
58,777    106,128    1413
58,767    106,275    1411
58,757    106,279    1411
58,747    106,348    1410
58,737    106,413    1410
58,727    106,096    1414
58,717    106,376    1410
58,707    106,371    1410
58,697    106,261    1412
58,687    106,385    1410
58,677    106,054    1414
58,667    105,949    1416
58,657    106,454    1409
58,647    106,160    1413
58,637    106,454    1409
58,627    106,100    1414
58,617    106,261    1412
58,607    106,537    1408
58,597    106,141    1413
58,587    106,298    1411
58,577    106,105    1414
58,567    106,178    1413
58,557    106,385    1410
58,547    106,219    1412
58,537    106,279    1411
58,527    106,348    1410
58,517    106,169    1413
58,507    106,394    1410
58,497    106,422    1409
58,487    106,087    1414
58,477    106,261    1412
58,467    106,394    1410
58,457    106,325    1411
58,447    106,288    1411
58,437    106,146    1413
58,427    106,718    1406
58,417    106,440    1409
58,407    106,422    1409
58,397    106,371    1410
58,387    106,279    1411
58,377    106,736    1405
58,367    106,468    1409
58,357    106,210    1412
58,347    106,270    1411
58,337    106,160    1413
58,327    106,137    1413
58,317    106,468    1409
58,307    106,132    1413
58,297    106,192    1413
58,287    106,192    1413
58,277    106,100    1414
58,267    106,662    1406
58,257    106,132    1413
58,247    106,247    1412
58,237    106,087    1414
58,227    106,275    1411
58,217    106,519    1408
58,207    106,160    1413
58,197    106,233    1412
58,187    106,160    1413
58,177    106,279    1411
58,167    106,477    1409
58,157    106,431    1409
58,147    106,256    1412
58,137    106,307    1411
58,127    106,210    1412
58,117    106,403    1410
58,107    106,238    1412
58,097    106,215    1412
58,087    106,348    1410
58,077    106,132    1413
58,067    106,597    1407
58,057    106,385    1410
58,047    106,238    1412
58,037    106,367    1410
58,027    106,242    1412
58,017    106,376    1410
58,007    106,339    1411
57,997    106,169    1413
57,987    106,463    1409
57,977    106,325    1411
57,967    106,339    1411
57,957    106,426    1409
57,947    106,096    1414
57,937    106,454    1409
57,927    106,417    1410
57,917    106,403    1410
57,907    106,422    1409
57,897    106,146    1413
57,887    106,334    1411
57,877    106,496    1409
57,867    106,284    1411
57,857    106,385    1410
57,847    106,261    1412
57,837    106,330    1411
57,827    106,482    1409
57,817    106,229    1412
57,807    106,380    1410
57,797    106,096    1414
57,787    106,229    1412
57,777    106,482    1409
57,767    106,284    1411
57,757    106,357    1410
57,747    106,252    1412
57,737    106,229    1412
57,727    106,436    1409
57,717    106,224    1412
57,707    106,316    1411
57,697    106,353    1410
57,687    106,330    1411
57,677    106,473    1409
57,667    106,151    1413
57,657    106,403    1410
57,647    106,252    1412
57,637    106,339    1411
57,627    106,597    1407
57,617    106,330    1411
57,607    106,082    1414
57,597    106,353    1410
57,587    106,105    1414
57,577    106,431    1409
57,567    106,546    1408
57,557    106,164    1413
57,547    106,403    1410
57,537    106,505    1408
57,527    106,607    1407
57,517    106,565    1408
57,507    106,187    1413
57,497    106,468    1409
57,487    106,330    1411
57,477    106,344    1411
57,467    106,422    1409
57,457    106,151    1413
57,447    106,376    1410
57,437    106,307    1411
57,427    106,394    1410
57,417    106,509    1408
57,407    106,219    1412
57,397    106,505    1408
57,387    106,270    1411
57,377    106,426    1409
57,367    106,426    1409
57,357    106,436    1409
57,347    106,973    1402
57,337    107,066    1401
57,327    106,671    1406
57,317    106,302    1411
57,307    106,408    1410
57,297    106,330    1411
57,287    106,685    1406
57,277    106,607    1407
57,267    106,201    1412
57,257    106,607    1407
57,247    106,662    1406
57,237    106,625    1407
57,227    106,486    1409
57,217    106,653    1406
57,207    106,750    1405
57,197    106,917    1403
57,187    106,806    1404
57,177    106,630    1407
57,167    106,607    1407
57,157    107,038    1401
57,147    106,769    1405
57,137    106,685    1406
57,127    106,801    1404
57,117    107,539    1395
57,107    107,043    1401
57,097    106,992    1402
57,087    107,417    1396
57,077    108,816    1378
57,067    107,714    1393
57,057    107,488    1396
57,047    119,655    1254
57,037    108,369    1384
57,027    125,005    1200
57,017    115,288    1301
