Z-Pos[um]|R[MOhm]|I[pA]
59,044    106,261    1412
59,034    106,829    1404
59,024    106,362    1410
59,014    106,348    1410
59,004    106,588    1407
58,994    106,187    1413
58,984    106,224    1412
58,974    106,620    1407
58,964    106,224    1412
58,954    106,417    1410
58,944    106,380    1410
58,934    106,109    1414
58,924    106,505    1408
58,914    106,288    1411
58,904    106,445    1409
58,894    106,362    1410
58,884    106,201    1412
58,874    106,376    1410
58,864    106,275    1411
58,854    106,486    1409
58,844    106,413    1410
58,834    106,270    1411
58,824    106,704    1406
58,814    106,579    1407
58,804    106,201    1412
58,794    106,722    1406
58,784    106,261    1412
58,774    106,482    1409
58,764    106,431    1409
58,754    105,972    1415
58,744    106,371    1410
58,734    106,546    1408
58,724    106,339    1411
58,714    106,219    1412
58,704    106,141    1413
58,694    106,362    1410
58,684    106,528    1408
58,674    106,288    1411
58,664    106,473    1409
58,654    106,307    1411
58,644    106,330    1411
58,634    106,450    1409
58,624    106,261    1412
58,614    106,334    1411
58,604    106,105    1414
58,594    106,206    1412
58,584    106,367    1410
58,574    106,169    1413
58,564    106,408    1410
58,554    106,210    1412
58,544    106,367    1410
58,534    106,722    1406
58,524    106,620    1407
58,514    106,440    1409
58,504    106,778    1405
58,494    106,922    1403
58,484    106,718    1406
58,474    106,367    1410
58,464    106,238    1412
58,454    106,210    1412
58,444    106,417    1410
58,434    106,206    1412
58,424    106,321    1411
58,414    106,436    1409
58,404    106,256    1412
58,394    106,362    1410
58,384    106,325    1411
58,374    106,123    1413
58,364    106,496    1409
58,354    106,394    1410
58,344    106,394    1410
58,334    106,579    1407
58,324    106,109    1414
58,314    106,473    1409
58,304    106,187    1413
58,294    106,344    1411
58,284    106,607    1407
58,274    106,219    1412
58,264    106,426    1409
58,254    106,210    1412
58,244    106,685    1406
58,234    106,750    1405
58,224    106,431    1409
58,214    106,500    1408
58,204    106,727    1405
58,194    106,496    1409
58,184    106,505    1408
58,174    106,325    1411
58,164    106,330    1411
58,154    106,413    1410
58,144    106,509    1408
58,134    106,174    1413
58,124    106,362    1410
58,114    106,376    1410
58,104    106,500    1408
58,094    106,477    1409
58,084    106,114    1414
58,074    106,339    1411
58,064    106,533    1408
58,054    106,344    1411
58,044    106,436    1409
58,034    106,187    1413
58,024    106,348    1410
58,014    106,551    1408
58,004    106,169    1413
57,994    106,413    1410
57,984    106,178    1413
57,974    106,288    1411
57,964    106,500    1408
57,954    106,265    1412
57,944    106,422    1409
57,934    106,252    1412
57,924    106,339    1411
57,914    106,505    1408
57,904    106,302    1411
57,894    106,422    1409
57,884    106,242    1412
57,874    107,417    1396
57,864    106,399    1410
57,854    106,454    1409
57,844    106,302    1411
57,834    106,270    1411
57,824    106,500    1408
57,814    106,334    1411
57,804    106,353    1410
57,794    106,219    1412
57,784    106,399    1410
57,774    106,579    1407
57,764    106,261    1412
57,754    106,334    1411
57,744    106,293    1411
57,734    106,685    1406
57,724    106,639    1407
57,714    106,509    1408
57,704    106,082    1414
57,694    106,473    1409
57,684    106,533    1408
57,674    106,431    1409
57,664    106,390    1410
57,654    106,004    1415
57,644    106,261    1412
57,634    106,344    1411
57,624    106,454    1409
57,614    106,187    1413
57,604    106,491    1409
57,594    106,256    1412
57,584    106,426    1409
57,574    106,482    1409
57,564    106,119    1414
57,554    106,422    1409
57,544    106,353    1410
57,534    106,367    1410
57,524    106,357    1410
57,514    106,247    1412
57,504    106,399    1410
57,494    106,509    1408
57,484    106,233    1412
57,474    106,394    1410
57,464    106,403    1410
57,454    106,408    1410
57,444    106,496    1409
57,434    106,468    1409
57,424    106,551    1408
57,414    106,727    1405
57,404    106,634    1407
57,394    106,681    1406
57,384    106,843    1404
57,374    106,625    1407
57,364    106,436    1409
57,354    106,574    1407
57,344    106,801    1404
57,334    106,321    1411
57,324    106,611    1407
57,314    106,450    1409
57,304    106,468    1409
57,294    106,899    1403
57,284    106,187    1413
57,274    106,408    1410
57,264    106,491    1409
57,254    106,546    1408
57,244    106,403    1410
57,234    106,256    1412
57,224    106,505    1408
57,214    106,778    1405
57,204    106,454    1409
57,194    106,523    1408
57,184    106,298    1411
57,174    106,339    1411
57,164    106,903    1403
57,154    106,546    1408
57,144    106,755    1405
57,134    106,871    1404
57,124    106,662    1406
57,114    106,978    1402
57,104    106,843    1404
57,094    107,464    1396
57,084    107,422    1396
57,074    107,076    1401
57,064    109,168    1374
57,054    116,679    1286
57,044    109,680    1368
