Z-Pos[um]|R[MOhm]|I[pA]
59,061    106,376    1410
59,051    106,978    1402
59,041    106,685    1406
59,031    106,630    1407
59,021    106,556    1408
59,011    106,206    1412
59,001    106,436    1409
58,991    106,648    1406
58,981    106,533    1408
58,971    106,630    1407
58,961    106,574    1407
58,951    106,514    1408
58,941    106,574    1407
58,931    106,431    1409
58,921    106,132    1413
58,911    106,403    1410
58,901    106,597    1407
58,891    106,334    1411
58,881    106,436    1409
58,871    106,265    1412
58,861    106,459    1409
58,851    106,556    1408
58,841    106,284    1411
58,831    106,302    1411
58,821    106,293    1411
58,811    106,380    1410
58,801    106,574    1407
58,791    106,293    1411
58,781    106,288    1411
58,771    106,275    1411
58,761    106,496    1409
58,751    106,755    1405
58,741    106,741    1405
58,731    106,298    1411
58,721    106,348    1410
58,711    106,509    1408
58,701    106,570    1408
58,691    106,482    1409
58,681    106,302    1411
58,671    106,413    1410
58,661    106,357    1410
58,651    106,533    1408
58,641    106,667    1406
58,631    106,247    1412
58,621    106,293    1411
58,611    106,713    1406
58,601    106,445    1409
58,591    106,357    1410
58,581    106,206    1412
58,571    106,380    1410
58,561    106,514    1408
58,551    106,256    1412
58,541    106,852    1404
58,531    106,128    1413
58,521    106,288    1411
58,511    106,671    1406
58,501    106,362    1410
58,491    106,376    1410
58,481    106,302    1411
58,471    106,141    1413
58,461    106,523    1408
58,451    106,390    1410
58,441    106,353    1410
58,431    106,357    1410
58,421    106,233    1412
58,411    106,560    1408
58,401    106,459    1409
58,391    106,132    1413
58,381    106,385    1410
58,371    106,302    1411
58,361    106,473    1409
58,351    106,565    1408
58,341    106,219    1412
58,331    106,509    1408
58,321    106,482    1409
58,311    106,570    1408
58,301    106,348    1410
58,291    106,169    1413
58,281    106,459    1409
58,271    106,436    1409
58,261    106,459    1409
58,251    106,348    1410
58,241    106,311    1411
58,231    106,408    1410
58,221    106,270    1411
58,211    106,533    1408
58,201    106,491    1409
58,191    106,307    1411
58,181    106,348    1410
58,171    106,422    1409
58,161    106,334    1411
58,151    106,583    1407
58,141    106,229    1412
58,131    106,353    1410
58,121    106,473    1409
58,111    106,371    1410
58,101    106,431    1409
58,091    106,215    1412
58,081    106,302    1411
58,071    106,367    1410
58,061    106,183    1413
58,051    106,463    1409
58,041    106,183    1413
58,031    106,454    1409
58,021    106,565    1408
58,011    106,265    1412
58,001    106,454    1409
57,991    106,311    1411
57,981    106,242    1412
57,971    106,546    1408
57,961    106,339    1411
57,951    106,403    1410
57,941    106,288    1411
57,931    106,316    1411
57,921    106,551    1408
57,911    106,431    1409
57,901    106,288    1411
57,891    106,496    1409
57,881    106,399    1410
57,871    106,339    1411
57,861    106,556    1408
57,851    106,229    1412
57,841    106,261    1412
57,831    106,676    1406
57,821    106,206    1412
57,811    106,385    1410
57,801    106,215    1412
57,791    106,187    1413
57,781    106,514    1408
57,771    106,261    1412
57,761    106,523    1408
57,751    106,399    1410
57,741    106,210    1412
57,731    106,491    1409
57,721    106,298    1411
57,711    106,473    1409
57,701    106,385    1410
57,691    106,307    1411
57,681    106,644    1407
57,671    106,491    1409
57,661    106,505    1408
57,651    106,362    1410
57,641    106,367    1410
57,631    106,491    1409
57,621    106,367    1410
57,611    106,261    1412
57,601    106,514    1408
57,591    106,307    1411
57,581    106,644    1407
57,571    106,463    1409
57,561    106,261    1412
57,551    106,491    1409
57,541    106,390    1410
57,531    106,491    1409
57,521    106,759    1405
57,511    106,284    1411
57,501    106,542    1408
57,491    106,454    1409
57,481    106,440    1409
57,471    106,454    1409
57,461    106,215    1412
57,451    106,459    1409
57,441    106,288    1411
57,431    106,551    1408
57,421    106,570    1408
57,411    106,385    1410
57,401    106,533    1408
57,391    106,316    1411
57,381    106,431    1409
57,371    106,644    1407
57,361    106,247    1412
57,351    106,542    1408
57,341    106,681    1406
57,331    106,440    1409
57,321    106,741    1405
57,311    106,574    1407
57,301    106,620    1407
57,291    106,978    1402
57,281    106,468    1409
57,271    106,616    1407
57,261    106,560    1408
57,251    106,477    1409
57,241    106,732    1405
57,231    106,917    1403
57,221    106,620    1407
57,211    106,778    1405
57,201    106,783    1405
57,191    106,796    1405
57,181    106,759    1405
57,171    106,722    1406
57,161    106,987    1402
57,151    106,722    1406
57,141    107,132    1400
57,131    107,403    1397
57,121    106,899    1403
57,111    107,497    1395
57,101    108,666    1380
57,091    107,747    1392
57,081    108,360    1384
57,071    108,931    1377
57,061    113,431    1322
