Z-Pos[um]|R[MOhm]|I[pA]
58,994    107,001    1402
58,984    106,913    1403
58,974    106,238    1412
58,964    106,454    1409
58,954    106,362    1410
58,944    106,722    1406
58,934    106,861    1404
58,924    106,625    1407
58,914    106,183    1413
58,904    106,556    1408
58,894    106,316    1411
58,884    106,450    1409
58,874    106,238    1412
58,864    106,376    1410
58,854    106,482    1409
58,844    106,413    1410
58,834    106,206    1412
58,824    106,210    1412
58,814    106,316    1411
58,804    106,505    1408
58,794    106,265    1412
58,784    106,178    1413
58,774    106,353    1410
58,764    106,087    1414
58,754    106,514    1408
58,744    106,417    1410
58,734    106,348    1410
58,724    106,514    1408
58,714    106,371    1410
58,704    106,330    1411
58,694    106,509    1408
58,684    106,275    1411
58,674    106,519    1408
58,664    106,704    1406
58,654    106,653    1406
58,644    106,699    1406
58,634    106,848    1404
58,624    106,824    1404
58,614    106,718    1406
58,604    106,690    1406
58,594    106,648    1406
58,584    106,769    1405
58,574    106,616    1407
58,564    106,523    1408
58,554    106,834    1404
58,544    106,917    1403
58,534    106,634    1407
58,524    106,796    1405
58,514    106,875    1404
58,504    106,792    1405
58,494    106,671    1406
58,484    106,755    1405
58,474    106,801    1404
58,464    106,325    1411
58,454    106,353    1410
58,444    106,454    1409
58,434    106,164    1413
58,424    106,450    1409
58,414    106,201    1412
58,404    106,311    1411
58,394    106,450    1409
58,384    106,109    1414
58,374    106,385    1410
58,364    106,256    1412
58,354    106,330    1411
58,344    106,440    1409
58,334    106,041    1415
58,324    106,477    1409
58,314    106,270    1411
58,304    106,164    1413
58,294    106,380    1410
58,284    106,197    1412
58,274    106,192    1413
58,264    106,491    1409
58,254    106,288    1411
58,244    106,160    1413
58,234    106,574    1407
58,224    106,681    1406
58,214    106,908    1403
58,204    106,959    1402
58,194    106,778    1405
58,184    106,732    1405
58,174    106,866    1404
58,164    106,764    1405
58,154    106,597    1407
58,144    106,542    1408
58,134    106,861    1404
58,124    106,848    1404
58,114    106,357    1410
58,104    106,307    1411
58,094    106,482    1409
58,084    106,256    1412
58,074    106,445    1409
58,064    106,219    1412
58,054    106,348    1410
58,044    106,523    1408
58,034    106,440    1409
58,024    106,252    1412
58,014    106,183    1413
58,004    106,579    1407
57,994    106,169    1413
57,984    106,348    1410
57,974    106,233    1412
57,964    106,454    1409
57,954    106,519    1408
57,944    106,114    1414
57,934    106,321    1411
57,924    106,192    1413
57,914    106,385    1410
57,904    106,570    1408
57,894    106,275    1411
57,884    106,256    1412
57,874    106,302    1411
57,864    106,187    1413
57,854    106,422    1409
57,844    106,505    1408
57,834    106,288    1411
57,824    106,528    1408
57,814    106,344    1411
57,804    106,787    1405
57,794    106,588    1407
57,784    106,565    1408
57,774    106,463    1409
57,764    106,741    1405
57,754    106,607    1407
57,744    106,275    1411
57,734    106,114    1414
57,724    106,242    1412
57,714    106,583    1407
57,704    106,440    1409
57,694    106,256    1412
57,684    106,344    1411
57,674    106,242    1412
57,664    106,537    1408
57,654    106,445    1409
57,644    106,265    1412
57,634    106,371    1410
57,624    106,376    1410
57,614    106,417    1410
57,604    106,477    1409
57,594    106,353    1410
57,584    106,542    1408
57,574    106,242    1412
57,564    106,431    1409
57,554    106,445    1409
57,544    106,298    1411
57,534    106,210    1412
57,524    106,399    1410
57,514    106,431    1409
57,504    106,362    1410
57,494    106,174    1413
57,484    106,362    1410
57,474    106,468    1409
57,464    106,325    1411
57,454    106,445    1409
57,444    106,187    1413
57,434    106,371    1410
57,424    106,560    1408
57,414    106,238    1412
57,404    106,445    1409
57,394    106,256    1412
57,384    106,330    1411
57,374    106,778    1405
57,364    106,376    1410
57,354    106,445    1409
57,344    106,307    1411
57,334    106,284    1411
57,324    106,556    1408
57,314    106,528    1408
57,304    106,505    1408
57,294    106,270    1411
57,284    106,436    1409
57,274    106,486    1409
57,264    106,509    1408
57,254    106,371    1410
57,244    106,440    1409
57,234    106,385    1410
57,224    106,644    1407
57,214    106,574    1407
57,204    106,178    1413
57,194    106,722    1406
57,184    106,713    1406
57,174    106,685    1406
57,164    106,694    1406
57,154    106,348    1410
57,144    106,810    1404
57,134    106,648    1406
57,124    106,727    1405
57,114    106,857    1404
57,104    106,445    1409
57,094    106,778    1405
57,084    107,141    1400
57,074    107,076    1401
57,064    106,792    1405
57,054    107,709    1393
57,044    107,441    1396
57,034    107,413    1396
57,024    107,455    1396
57,014    108,989    1376
57,004    112,471    1334
56,994    108,403    1384
56,984    111,532    1345
