Z-Pos[um]|R[MOhm]|I[pA]
58,977    106,311    1411
58,967    106,889    1403
58,957    106,316    1411
58,947    106,473    1409
58,937    106,390    1410
58,927    106,252    1412
58,917    106,408    1410
58,907    106,330    1411
58,897    106,533    1408
58,887    106,339    1411
58,877    106,132    1413
58,867    106,390    1410
58,857    106,219    1412
58,847    106,408    1410
58,837    106,431    1409
58,827    106,219    1412
58,817    106,247    1412
58,807    106,367    1410
58,797    106,473    1409
58,787    106,964    1402
58,777    106,829    1404
58,767    106,667    1406
58,757    106,861    1404
58,747    106,764    1405
58,737    106,950    1403
58,727    106,279    1411
58,717    106,270    1411
58,707    106,408    1410
58,697    106,187    1413
58,687    106,298    1411
58,677    106,238    1412
58,667    106,330    1411
58,657    106,597    1407
58,647    106,137    1413
58,637    106,344    1411
58,627    106,316    1411
58,617    106,316    1411
58,607    106,229    1412
58,597    106,174    1413
58,587    106,344    1411
58,577    106,810    1404
58,567    106,773    1405
58,557    106,542    1408
58,547    106,852    1404
58,537    107,113    1400
58,527    107,001    1402
58,517    106,050    1414
58,507    106,426    1409
58,497    106,261    1412
58,487    106,261    1412
58,477    106,491    1409
58,467    106,265    1412
58,457    106,496    1409
58,447    106,229    1412
58,437    106,183    1413
58,427    106,468    1409
58,417    106,210    1412
58,407    106,426    1409
58,397    106,334    1411
58,387    106,178    1413
58,377    106,293    1411
58,367    106,109    1414
58,357    106,233    1412
58,347    106,514    1408
58,337    106,201    1412
58,327    106,625    1407
58,317    106,224    1412
58,307    106,233    1412
58,297    106,477    1409
58,287    106,275    1411
58,277    106,348    1410
58,267    106,275    1411
58,257    106,224    1412
58,247    106,500    1408
58,237    106,261    1412
58,227    106,132    1413
58,217    106,431    1409
58,207    106,233    1412
58,197    106,806    1404
58,187    106,353    1410
58,177    106,215    1412
58,167    106,514    1408
58,157    106,625    1407
58,147    106,445    1409
58,137    106,348    1410
58,127    106,261    1412
58,117    106,219    1412
58,107    106,694    1406
58,097    106,183    1413
58,087    106,192    1413
58,077    106,128    1413
58,067    106,270    1411
58,057    106,630    1407
58,047    106,151    1413
58,037    106,298    1411
58,027    106,288    1411
58,017    106,380    1410
58,007    106,533    1408
57,997    106,229    1412
57,987    106,348    1410
57,977    106,334    1411
57,967    106,307    1411
57,957    106,505    1408
57,947    106,307    1411
57,937    106,265    1412
57,927    106,371    1410
57,917    106,371    1410
57,907    106,459    1409
57,897    106,616    1407
57,887    106,155    1413
57,877    106,671    1406
57,867    106,579    1407
57,857    106,440    1409
57,847    106,639    1407
57,837    106,574    1407
57,827    106,417    1410
57,817    106,708    1406
57,807    106,607    1407
57,797    106,454    1409
57,787    106,477    1409
57,777    106,634    1407
57,767    106,491    1409
57,757    106,505    1408
57,747    106,634    1407
57,737    106,602    1407
57,727    106,611    1407
57,717    106,523    1408
57,707    106,380    1410
57,697    106,238    1412
57,687    106,477    1409
57,677    106,233    1412
57,667    106,311    1411
57,657    106,100    1414
57,647    106,201    1412
57,637    106,468    1409
57,627    106,206    1412
57,617    106,344    1411
57,607    106,247    1412
57,597    106,238    1412
57,587    106,579    1407
57,577    106,496    1409
57,567    106,417    1410
57,557    106,773    1405
57,547    106,298    1411
57,537    106,505    1408
57,527    106,376    1410
57,517    106,174    1413
57,507    106,583    1407
57,497    106,256    1412
57,487    106,334    1411
57,477    106,459    1409
57,467    106,132    1413
57,457    106,482    1409
57,447    106,380    1410
57,437    106,325    1411
57,427    106,463    1409
57,417    106,252    1412
57,407    106,496    1409
57,397    106,468    1409
57,387    106,302    1411
57,377    106,247    1412
57,367    106,178    1413
57,357    106,413    1410
57,347    106,602    1407
57,337    106,311    1411
57,327    106,431    1409
57,317    106,201    1412
57,307    106,325    1411
57,297    106,634    1407
57,287    106,376    1410
57,277    106,463    1409
57,267    106,252    1412
57,257    106,275    1411
57,247    106,486    1409
57,237    106,459    1409
57,227    106,482    1409
57,217    106,403    1410
57,207    106,422    1409
57,197    106,307    1411
57,187    106,445    1409
57,177    106,431    1409
57,167    106,390    1410
57,157    106,602    1407
57,147    106,514    1408
57,137    106,574    1407
57,127    106,519    1408
57,117    106,477    1409
57,107    106,945    1403
57,097    106,875    1404
57,087    106,288    1411
57,077    106,950    1403
57,067    108,941    1377
57,057    106,978    1402
57,047    106,704    1406
57,037    106,996    1402
57,027    107,178    1400
57,017    107,192    1399
57,007    108,989    1376
56,997    107,225    1399
56,987    108,835    1378
56,977    211,170    710
56,967    124,821    1202
