Z-Pos[um]|R[MOhm]|I[pA]
59,039    106,362    1410
59,029    106,973    1402
59,019    106,537    1408
59,009    106,201    1412
58,999    106,403    1410
58,989    106,528    1408
58,979    106,265    1412
58,969    106,316    1411
58,959    106,132    1413
58,949    106,362    1410
58,939    106,431    1409
58,929    106,151    1413
58,919    106,367    1410
58,909    106,197    1412
58,899    106,247    1412
58,889    106,519    1408
58,879    106,164    1413
58,869    106,445    1409
58,859    106,778    1405
58,849    106,630    1407
58,839    106,727    1405
58,829    106,796    1405
58,819    106,824    1404
58,809    106,667    1406
58,799    106,288    1411
58,789    106,215    1412
58,779    106,219    1412
58,769    106,036    1415
58,759    106,505    1408
58,749    106,164    1413
58,739    106,357    1410
58,729    106,371    1410
58,719    106,597    1407
58,709    107,006    1402
58,699    106,875    1404
58,689    106,843    1404
58,679    106,736    1405
58,669    106,408    1410
58,659    106,445    1409
58,649    106,169    1413
58,639    106,298    1411
58,629    106,362    1410
58,619    106,224    1412
58,609    106,454    1409
58,599    106,050    1414
58,589    106,146    1413
58,579    106,454    1409
58,569    106,288    1411
58,559    106,206    1412
58,549    106,197    1412
58,539    106,174    1413
58,529    106,519    1408
58,519    106,229    1412
58,509    106,252    1412
58,499    106,215    1412
58,489    106,279    1411
58,479    106,463    1409
58,469    106,183    1413
58,459    106,114    1414
58,449    106,233    1412
58,439    106,252    1412
58,429    106,275    1411
58,419    106,459    1409
58,409    106,096    1414
58,399    106,394    1410
58,389    106,164    1413
58,379    106,422    1409
58,369    106,436    1409
58,359    106,533    1408
58,349    106,745    1405
58,339    106,954    1402
58,329    106,959    1402
58,319    106,357    1410
58,309    106,704    1406
58,299    107,006    1402
58,289    106,676    1406
58,279    106,160    1413
58,269    106,431    1409
58,259    106,206    1412
58,249    106,206    1412
58,239    106,417    1410
58,229    106,362    1410
58,219    106,082    1414
58,209    106,473    1409
58,199    106,426    1409
58,189    106,224    1412
58,179    106,302    1411
58,169    106,160    1413
58,159    106,537    1408
58,149    106,141    1413
58,139    106,238    1412
58,129    106,293    1411
58,119    106,330    1411
58,109    106,330    1411
58,099    106,371    1410
58,089    106,187    1413
58,079    106,321    1411
58,069    106,247    1412
58,059    106,321    1411
58,049    106,431    1409
58,039    106,201    1412
58,029    106,141    1413
58,019    106,500    1408
58,009    106,298    1411
57,999    106,298    1411
57,989    106,036    1415
57,979    106,233    1412
57,969    106,468    1409
57,959    106,183    1413
57,949    106,219    1412
57,939    106,252    1412
57,929    106,316    1411
57,919    106,468    1409
57,909    106,187    1413
57,899    106,247    1412
57,889    106,321    1411
57,879    106,252    1412
57,869    106,611    1407
57,859    106,206    1412
57,849    106,128    1413
57,839    106,206    1412
57,829    106,298    1411
57,819    106,394    1410
57,809    106,330    1411
57,799    106,013    1415
57,789    106,344    1411
57,779    106,151    1413
57,769    106,445    1409
57,759    106,330    1411
57,749    106,155    1413
57,739    106,256    1412
57,729    106,064    1414
57,719    106,431    1409
57,709    106,390    1410
57,699    106,210    1412
57,689    106,385    1410
57,679    106,183    1413
57,669    106,417    1410
57,659    106,445    1409
57,649    106,050    1414
57,639    106,551    1408
57,629    106,238    1412
57,619    106,459    1409
57,609    106,445    1409
57,599    106,183    1413
57,589    106,440    1409
57,579    106,385    1410
57,569    106,385    1410
57,559    106,362    1410
57,549    106,169    1413
57,539    106,463    1409
57,529    106,625    1407
57,519    106,344    1411
57,509    106,509    1408
57,499    106,288    1411
57,489    106,128    1413
57,479    106,607    1407
57,469    106,169    1413
57,459    106,325    1411
57,449    106,178    1413
57,439    106,362    1410
57,429    106,903    1403
57,419    107,043    1401
57,409    106,792    1405
57,399    106,843    1404
57,389    106,875    1404
57,379    107,020    1402
57,369    106,750    1405
57,359    106,796    1405
57,349    106,987    1402
57,339    106,676    1406
57,329    106,087    1414
57,319    106,630    1407
57,309    106,593    1407
57,299    106,542    1408
57,289    106,399    1410
57,279    106,288    1411
57,269    106,399    1410
57,259    106,694    1406
57,249    106,482    1409
57,239    106,450    1409
57,229    106,242    1412
57,219    106,422    1409
57,209    106,759    1405
57,199    106,491    1409
57,189    106,755    1405
57,179    106,625    1407
57,169    106,311    1411
57,159    106,681    1406
57,149    107,164    1400
57,139    106,783    1405
57,129    106,537    1408
57,119    106,927    1403
57,109    107,492    1395
57,099    106,838    1404
57,089    106,778    1405
57,079    107,941    1390
57,069    109,519    1370
57,059    107,422    1396
57,049    119,446    1256
57,039    125,349    1197
