Z-Pos[um]|R[MOhm]|I[pA]
59,027    106,265    1412
59,017    106,875    1404
59,007    106,450    1409
58,997    106,390    1410
58,987    106,440    1409
58,977    105,986    1415
58,967    106,390    1410
58,957    106,546    1408
58,947    106,307    1411
58,937    106,284    1411
58,927    106,109    1414
58,917    106,275    1411
58,907    106,270    1411
58,897    106,325    1411
58,887    106,316    1411
58,877    106,164    1413
58,867    106,215    1412
58,857    106,275    1411
58,847    106,261    1412
58,837    106,482    1409
58,827    106,242    1412
58,817    106,261    1412
58,807    106,463    1409
58,797    106,141    1413
58,787    106,265    1412
58,777    106,109    1414
58,767    106,137    1413
58,757    106,275    1411
58,747    106,238    1412
58,737    106,219    1412
58,727    106,087    1414
58,717    106,155    1413
58,707    106,394    1410
58,697    106,357    1410
58,687    106,252    1412
58,677    106,607    1407
58,667    106,440    1409
58,657    106,653    1406
58,647    106,574    1407
58,637    106,431    1409
58,627    106,486    1409
58,617    106,727    1405
58,607    106,454    1409
58,597    106,477    1409
58,587    106,570    1408
58,577    106,348    1410
58,567    106,330    1411
58,557    106,385    1410
58,547    105,945    1416
58,537    106,394    1410
58,527    106,348    1410
58,517    106,321    1411
58,507    106,353    1410
58,497    106,087    1414
58,487    106,371    1410
58,477    106,256    1412
58,467    106,137    1413
58,457    106,417    1410
58,447    106,174    1413
58,437    106,463    1409
58,427    106,298    1411
58,417    106,233    1412
58,407    106,385    1410
58,397    106,114    1414
58,387    106,403    1410
58,377    106,316    1411
58,367    106,219    1412
58,357    106,238    1412
58,347    106,013    1415
58,337    106,032    1415
58,327    106,450    1409
58,317    106,344    1411
58,307    106,197    1412
58,297    106,210    1412
58,287    106,022    1415
58,277    106,436    1409
58,267    106,073    1414
58,257    106,233    1412
58,247    106,325    1411
58,237    106,146    1413
58,227    106,385    1410
58,217    106,215    1412
58,207    106,288    1411
58,197    106,197    1412
58,187    106,096    1414
58,177    106,385    1410
58,167    106,114    1414
58,157    106,141    1413
58,147    106,422    1409
58,137    106,219    1412
58,127    106,454    1409
58,117    106,417    1410
58,107    106,155    1413
58,097    106,380    1410
58,087    106,256    1412
58,077    106,750    1405
58,067    106,778    1405
58,057    106,722    1406
58,047    106,657    1406
58,037    106,848    1404
58,027    106,792    1405
58,017    106,302    1411
58,007    106,431    1409
57,997    106,708    1406
57,987    106,519    1408
57,977    106,325    1411
57,967    106,477    1409
57,957    106,732    1405
57,947    106,413    1410
57,937    106,509    1408
57,927    106,141    1413
57,917    106,233    1412
57,907    106,796    1405
57,897    106,607    1407
57,887    106,367    1410
57,877    106,468    1409
57,867    106,690    1406
57,857    106,380    1410
57,847    106,542    1408
57,837    106,491    1409
57,827    106,422    1409
57,817    106,662    1406
57,807    106,233    1412
57,797    106,151    1413
57,787    106,334    1411
57,777    106,252    1412
57,767    106,445    1409
57,757    106,288    1411
57,747    106,252    1412
57,737    106,238    1412
57,727    106,394    1410
57,717    106,330    1411
57,707    106,321    1411
57,697    106,109    1414
57,687    106,339    1411
57,677    106,436    1409
57,667    106,302    1411
57,657    106,385    1410
57,647    106,284    1411
57,637    106,146    1413
57,627    106,463    1409
57,617    106,344    1411
57,607    106,330    1411
57,597    106,082    1414
57,587    106,192    1413
57,577    106,403    1410
57,567    106,229    1412
57,557    106,334    1411
57,547    106,119    1414
57,537    106,233    1412
57,527    106,316    1411
57,517    106,394    1410
57,507    106,348    1410
57,497    106,625    1407
57,487    106,755    1405
57,477    106,348    1410
57,467    106,045    1414
57,457    106,357    1410
57,447    106,385    1410
57,437    106,413    1410
57,427    106,454    1409
57,417    106,155    1413
57,407    106,454    1409
57,397    106,339    1411
57,387    106,187    1413
57,377    106,450    1409
57,367    106,270    1411
57,357    106,579    1407
57,347    106,764    1405
57,337    106,759    1405
57,327    106,169    1413
57,317    106,436    1409
57,307    106,380    1410
57,297    106,616    1407
57,287    106,477    1409
57,277    106,197    1412
57,267    106,422    1409
57,257    106,579    1407
57,247    106,574    1407
57,237    106,482    1409
57,227    106,385    1410
57,217    106,426    1409
57,207    106,852    1404
57,197    106,505    1408
57,187    106,403    1410
57,177    106,436    1409
57,167    106,463    1409
57,157    106,866    1404
57,147    107,263    1398
57,137    106,713    1406
57,127    106,634    1407
57,117    106,694    1406
57,107    107,094    1401
57,097    106,848    1404
57,087    106,463    1409
57,077    107,188    1399
57,067    107,771    1392
57,057    107,352    1397
57,047    107,375    1397
57,037    111,128    1350
57,027    109,441    1371
