Z-Pos[um]|R[MOhm]|I[pA]
58,984    106,362    1410
58,974    107,328    1398
58,964    106,311    1411
58,954    106,413    1410
58,944    106,174    1413
58,934    106,542    1408
58,924    106,639    1407
58,914    106,293    1411
58,904    106,413    1410
58,894    106,298    1411
58,884    106,505    1408
58,874    106,459    1409
58,864    106,371    1410
58,854    106,353    1410
58,844    106,422    1409
58,834    106,119    1414
58,824    106,496    1409
58,814    106,394    1410
58,804    106,417    1410
58,794    106,519    1408
58,784    106,307    1411
58,774    106,533    1408
58,764    106,519    1408
58,754    106,284    1411
58,744    106,519    1408
58,734    106,362    1410
58,724    106,422    1409
58,714    106,426    1409
58,704    106,036    1415
58,694    106,431    1409
58,684    106,390    1410
58,674    106,468    1409
58,664    106,265    1412
58,654    106,036    1415
58,644    106,454    1409
58,634    106,339    1411
58,624    106,496    1409
58,614    106,298    1411
58,604    106,178    1413
58,594    106,431    1409
58,584    106,537    1408
58,574    106,311    1411
58,564    106,514    1408
58,554    106,247    1412
58,544    106,316    1411
58,534    106,408    1410
58,524    106,311    1411
58,514    107,314    1398
58,504    106,390    1410
58,494    106,394    1410
58,484    106,353    1410
58,474    106,238    1412
58,464    106,454    1409
58,454    106,325    1411
58,444    106,496    1409
58,434    106,505    1408
58,424    106,183    1413
58,414    106,334    1411
58,404    106,528    1408
58,394    106,371    1410
58,384    106,519    1408
58,374    106,311    1411
58,364    106,509    1408
58,354    106,653    1406
58,344    106,690    1406
58,334    106,219    1412
58,324    106,252    1412
58,314    106,325    1411
58,304    106,408    1410
58,294    106,542    1408
58,284    106,238    1412
58,274    106,275    1411
58,264    106,514    1408
58,254    106,210    1412
58,244    106,219    1412
58,234    106,316    1411
58,224    106,339    1411
58,214    106,491    1409
58,204    106,348    1410
58,194    106,215    1412
58,184    106,755    1405
58,174    106,551    1408
58,164    106,611    1407
58,154    106,593    1407
58,144    106,380    1410
58,134    106,588    1407
58,124    106,496    1409
58,114    106,459    1409
58,104    106,201    1412
58,094    106,307    1411
58,084    106,413    1410
58,074    106,676    1406
58,064    106,574    1407
58,054    106,261    1412
58,044    106,307    1411
58,034    106,459    1409
58,024    106,408    1410
58,014    106,676    1406
58,004    106,866    1404
57,994    106,913    1403
57,984    106,662    1406
57,974    106,745    1405
57,964    106,843    1404
57,954    106,362    1410
57,944    106,431    1409
57,934    106,523    1408
57,924    107,342    1397
57,914    106,238    1412
57,904    106,399    1410
57,894    106,408    1410
57,884    106,353    1410
57,874    106,293    1411
57,864    106,583    1407
57,854    106,417    1410
57,844    106,445    1409
57,834    106,164    1413
57,824    106,183    1413
57,814    106,459    1409
57,804    106,261    1412
57,794    106,187    1413
57,784    106,119    1414
57,774    106,146    1413
57,764    106,657    1406
57,754    106,265    1412
57,744    106,151    1413
57,734    106,242    1412
57,724    106,385    1410
57,714    106,546    1408
57,704    106,298    1411
57,694    106,519    1408
57,684    106,330    1411
57,674    106,233    1412
57,664    106,537    1408
57,654    106,537    1408
57,644    106,100    1414
57,634    106,537    1408
57,624    106,445    1409
57,614    106,436    1409
57,604    106,413    1410
57,594    106,109    1414
57,584    106,417    1410
57,574    106,440    1409
57,564    106,593    1407
57,554    106,238    1412
57,544    106,105    1414
57,534    106,413    1410
57,524    106,440    1409
57,514    106,482    1409
57,504    106,431    1409
57,494    106,256    1412
57,484    106,279    1411
57,474    106,473    1409
57,464    106,357    1410
57,454    106,357    1410
57,444    106,380    1410
57,434    106,316    1411
57,424    106,741    1405
57,414    106,630    1407
57,404    106,537    1408
57,394    106,657    1406
57,384    106,699    1406
57,374    106,542    1408
57,364    106,570    1408
57,354    106,256    1412
57,344    106,160    1413
57,334    106,486    1409
57,324    106,275    1411
57,314    106,491    1409
57,304    106,385    1410
57,294    106,330    1411
57,284    106,764    1405
57,274    106,431    1409
57,264    106,426    1409
57,254    106,473    1409
57,244    106,514    1408
57,234    106,653    1406
57,224    106,644    1407
57,214    106,321    1411
57,204    106,699    1406
57,194    106,298    1411
57,184    106,634    1407
57,174    106,662    1406
57,164    106,311    1411
57,154    106,810    1404
57,144    106,583    1407
57,134    106,533    1408
57,124    106,820    1404
57,114    106,533    1408
57,104    107,029    1401
57,094    106,704    1406
57,084    106,978    1402
57,074    107,216    1399
57,064    107,038    1401
57,054    106,936    1403
57,044    107,879    1390
57,034    239,346    627
57,024    109,876    1365
57,014    107,894    1390
57,004    113,794    1318
56,994    283,395    529
