Z-Pos[um]|R[MOhm]|I[pA]
59,056    106,482    1409
59,046    106,523    1408
59,036    106,307    1411
59,026    106,293    1411
59,016    106,459    1409
59,006    106,288    1411
58,996    106,123    1413
58,986    106,311    1411
58,976    106,174    1413
58,966    106,403    1410
58,956    106,431    1409
58,946    106,187    1413
58,936    106,413    1410
58,926    106,265    1412
58,916    106,551    1408
58,906    106,371    1410
58,896    106,233    1412
58,886    106,473    1409
58,876    106,408    1410
58,866    106,307    1411
58,856    106,357    1410
58,846    105,995    1415
58,836    106,215    1412
58,826    106,385    1410
58,816    106,132    1413
58,806    106,403    1410
58,796    106,155    1413
58,786    106,311    1411
58,776    106,440    1409
58,766    106,201    1412
58,756    106,174    1413
58,746    106,426    1409
58,736    106,450    1409
58,726    106,265    1412
58,716    106,440    1409
58,706    106,036    1415
58,696    106,394    1410
58,686    106,284    1411
58,676    106,233    1412
58,666    106,169    1413
58,656    106,087    1414
58,646    106,224    1412
58,636    106,399    1410
58,626    106,146    1413
58,616    106,252    1412
58,606    106,256    1412
58,596    106,187    1413
58,586    106,570    1408
58,576    106,694    1406
58,566    106,440    1409
58,556    106,690    1406
58,546    106,477    1409
58,536    106,307    1411
58,526    106,293    1411
58,516    106,252    1412
58,506    106,385    1410
58,496    106,611    1407
58,486    106,307    1411
58,476    106,344    1411
58,466    106,132    1413
58,456    106,174    1413
58,446    106,417    1410
58,436    106,357    1410
58,426    106,045    1414
58,416    106,334    1411
58,406    106,344    1411
58,396    106,509    1408
58,386    106,519    1408
58,376    106,390    1410
58,366    106,546    1408
58,356    106,653    1406
58,346    106,413    1410
58,336    106,477    1409
58,326    106,496    1409
58,316    106,477    1409
58,306    106,579    1407
58,296    106,454    1409
58,286    106,348    1410
58,276    106,413    1410
58,266    106,662    1406
58,256    106,445    1409
58,246    106,252    1412
58,236    106,579    1407
58,226    106,644    1407
58,216    106,096    1414
58,206    106,169    1413
58,196    106,219    1412
58,186    106,215    1412
58,176    106,611    1407
58,166    106,261    1412
58,156    106,238    1412
58,146    106,367    1410
58,136    106,265    1412
58,126    106,426    1409
58,116    106,339    1411
58,106    106,077    1414
58,096    106,403    1410
58,086    106,261    1412
58,076    106,353    1410
58,066    106,390    1410
58,056    106,087    1414
58,046    106,486    1409
58,036    106,219    1412
58,026    106,597    1407
58,016    106,445    1409
58,006    106,137    1413
57,996    106,390    1410
57,986    106,380    1410
57,976    106,491    1409
57,966    106,298    1411
57,956    106,160    1413
57,946    106,431    1409
57,936    106,330    1411
57,926    106,593    1407
57,916    106,307    1411
57,906    106,201    1412
57,896    106,321    1411
57,886    106,399    1410
57,876    106,256    1412
57,866    106,316    1411
57,856    106,224    1412
57,846    106,330    1411
57,836    106,473    1409
57,826    106,321    1411
57,816    106,344    1411
57,806    106,141    1413
57,796    106,141    1413
57,786    106,537    1408
57,776    106,353    1410
57,766    106,528    1408
57,756    106,644    1407
57,746    106,764    1405
57,736    106,128    1413
57,726    106,390    1410
57,716    106,229    1412
57,706    106,302    1411
57,696    106,450    1409
57,686    106,316    1411
57,676    106,261    1412
57,666    106,330    1411
57,656    106,238    1412
57,646    106,509    1408
57,636    106,367    1410
57,626    106,459    1409
57,616    106,403    1410
57,606    106,426    1409
57,596    106,357    1410
57,586    106,551    1408
57,576    106,523    1408
57,566    106,676    1406
57,556    106,477    1409
57,546    106,367    1410
57,536    106,440    1409
57,526    106,164    1413
57,516    106,403    1410
57,506    106,344    1411
57,496    106,238    1412
57,486    106,482    1409
57,476    106,128    1413
57,466    106,367    1410
57,456    106,436    1409
57,446    106,436    1409
57,436    106,422    1409
57,426    106,261    1412
57,416    106,311    1411
57,406    106,473    1409
57,396    106,330    1411
57,386    106,353    1410
57,376    106,302    1411
57,366    106,431    1409
57,356    106,537    1408
57,346    106,390    1410
57,336    106,477    1409
57,326    106,348    1410
57,316    106,399    1410
57,306    106,611    1407
57,296    106,523    1408
57,286    106,242    1412
57,276    106,537    1408
57,266    106,371    1410
57,256    106,611    1407
57,246    106,764    1405
57,236    106,261    1412
57,226    106,834    1404
57,216    107,071    1401
57,206    106,625    1407
57,196    106,736    1405
57,186    107,244    1399
57,176    106,694    1406
57,166    106,759    1405
57,156    106,950    1403
57,146    107,062    1401
57,136    107,090    1401
57,126    106,815    1404
57,116    107,488    1396
57,106    107,818    1391
57,096    107,155    1400
57,086    110,568    1357
57,076    108,045    1388
57,066    129,730    1156
