Z-Pos[um]|R[MOhm]|I[pA]
59,047    106,468    1409
59,037    107,300    1398
59,027    106,829    1404
59,017    106,736    1405
59,007    106,357    1410
58,997    106,648    1406
58,987    106,399    1410
58,977    106,367    1410
58,967    106,325    1411
58,957    106,187    1413
58,947    106,523    1408
58,937    106,187    1413
58,927    106,505    1408
58,917    107,071    1401
58,907    107,048    1401
58,897    106,820    1404
58,887    106,713    1406
58,877    106,820    1404
58,867    107,202    1399
58,857    106,931    1403
58,847    106,607    1407
58,837    106,848    1404
58,827    107,010    1402
58,817    106,917    1403
58,807    106,160    1413
58,797    106,288    1411
58,787    106,390    1410
58,777    106,376    1410
58,767    106,224    1412
58,757    106,004    1415
58,747    106,032    1415
58,737    106,542    1408
58,727    106,371    1410
58,717    106,523    1408
58,707    106,224    1412
58,697    106,229    1412
58,687    106,422    1409
58,677    106,413    1410
58,667    106,109    1414
58,657    106,699    1406
58,647    106,620    1407
58,637    106,722    1406
58,627    106,648    1406
58,617    106,321    1411
58,607    106,454    1409
58,597    106,750    1405
58,587    106,431    1409
58,577    106,242    1412
58,567    106,279    1411
58,557    106,579    1407
58,547    106,224    1412
58,537    106,330    1411
58,527    106,206    1412
58,517    106,265    1412
58,507    106,491    1409
58,497    106,238    1412
58,487    106,178    1413
58,477    106,137    1413
58,467    106,500    1408
58,457    106,436    1409
58,447    106,321    1411
58,437    106,413    1410
58,427    106,293    1411
58,417    106,229    1412
58,407    106,399    1410
58,397    106,256    1412
58,387    106,279    1411
58,377    106,357    1410
58,367    106,169    1413
58,357    106,486    1409
58,347    106,376    1410
58,337    106,187    1413
58,327    106,426    1409
58,317    106,270    1411
58,307    106,473    1409
58,297    106,491    1409
58,287    106,160    1413
58,277    106,403    1410
58,267    106,339    1411
58,257    106,348    1410
58,247    106,459    1409
58,237    106,045    1414
58,227    106,288    1411
58,217    106,408    1410
58,207    106,339    1411
58,197    106,431    1409
58,187    106,247    1412
58,177    106,357    1410
58,167    106,399    1410
58,157    106,357    1410
58,147    106,422    1409
58,137    106,238    1412
58,127    106,417    1410
58,117    106,362    1410
58,107    106,132    1413
58,097    106,422    1409
58,087    106,027    1415
58,077    106,339    1411
58,067    106,371    1410
58,057    106,183    1413
58,047    106,426    1409
58,037    106,022    1415
58,027    106,376    1410
58,017    106,362    1410
58,007    106,311    1411
57,997    106,353    1410
57,987    106,242    1412
57,977    106,330    1411
57,967    106,625    1407
57,957    106,334    1411
57,947    106,417    1410
57,937    106,219    1412
57,927    106,275    1411
57,917    106,394    1410
57,907    106,542    1408
57,897    106,238    1412
57,887    106,459    1409
57,877    106,238    1412
57,867    106,450    1409
57,857    106,528    1408
57,847    106,155    1413
57,837    106,773    1405
57,827    106,403    1410
57,817    106,514    1408
57,807    106,431    1409
57,797    106,187    1413
57,787    107,024    1402
57,777    106,861    1404
57,767    106,769    1405
57,757    106,778    1405
57,747    107,038    1401
57,737    106,745    1405
57,727    106,718    1406
57,717    106,885    1403
57,707    106,583    1407
57,697    106,265    1412
57,687    106,362    1410
57,677    106,279    1411
57,667    106,265    1412
57,657    106,602    1407
57,647    106,247    1412
57,637    106,718    1406
57,627    106,838    1404
57,617    106,964    1402
57,607    106,727    1405
57,597    106,482    1409
57,587    106,992    1402
57,577    106,454    1409
57,567    106,399    1410
57,557    106,371    1410
57,547    106,288    1411
57,537    106,376    1410
57,527    106,570    1408
57,517    106,353    1410
57,507    106,523    1408
57,497    106,339    1411
57,487    106,229    1412
57,477    106,463    1409
57,467    106,713    1406
57,457    106,426    1409
57,447    106,801    1404
57,437    106,713    1406
57,427    106,570    1408
57,417    106,750    1405
57,407    106,796    1405
57,397    106,625    1407
57,387    106,806    1404
57,377    106,861    1404
57,367    106,815    1404
57,357    106,996    1402
57,347    106,829    1404
57,337    106,941    1403
57,327    107,066    1401
57,317    106,968    1402
57,307    107,020    1402
57,297    106,611    1407
57,287    106,769    1405
57,277    106,685    1406
57,267    106,913    1403
57,257    106,764    1405
57,247    106,477    1409
57,237    106,838    1404
57,227    106,908    1403
57,217    106,787    1405
57,207    106,903    1403
57,197    106,903    1403
57,187    106,982    1402
57,177    106,889    1403
57,167    106,922    1403
57,157    106,671    1406
57,147    106,908    1403
57,137    107,366    1397
57,127    107,006    1402
57,117    106,875    1404
57,107    106,885    1403
57,097    107,984    1389
57,087    107,352    1397
57,077    107,605    1394
57,067    107,323    1398
57,057    107,483    1396
57,047    172,778    868
57,037    108,676    1380
57,027    219,782    682
