Z-Pos[um]|R[MOhm]|I[pA]
59,047    106,316    1411
59,037    106,899    1403
59,027    106,459    1409
59,017    106,215    1412
59,007    106,187    1413
58,997    106,252    1412
58,987    106,353    1410
58,977    106,279    1411
58,967    106,491    1409
58,957    106,064    1414
58,947    106,316    1411
58,937    106,694    1406
58,927    106,644    1407
58,917    106,639    1407
58,907    106,611    1407
58,897    106,316    1411
58,887    106,357    1410
58,877    106,413    1410
58,867    106,132    1413
58,857    106,399    1410
58,847    106,325    1411
58,837    106,169    1413
58,827    106,440    1409
58,817    106,178    1413
58,807    106,321    1411
58,797    106,556    1408
58,787    106,201    1412
58,777    106,288    1411
58,767    106,307    1411
58,757    106,141    1413
58,747    106,491    1409
58,737    106,279    1411
58,727    106,284    1411
58,717    106,275    1411
58,707    106,219    1412
58,697    106,357    1410
58,687    106,146    1413
58,677    106,344    1411
58,667    106,339    1411
58,657    106,321    1411
58,647    106,385    1410
58,637    106,367    1410
58,627    106,357    1410
58,617    106,376    1410
58,607    106,242    1412
58,597    106,394    1410
58,587    106,233    1412
58,577    106,275    1411
58,567    106,588    1407
58,557    106,385    1410
58,547    106,155    1413
58,537    106,307    1411
58,527    106,385    1410
58,517    106,293    1411
58,507    106,371    1410
58,497    106,380    1410
58,487    106,288    1411
58,477    106,357    1410
58,467    106,187    1413
58,457    106,417    1410
58,447    106,219    1412
58,437    106,141    1413
58,427    106,588    1407
58,417    106,169    1413
58,407    106,588    1407
58,397    106,537    1408
58,387    106,132    1413
58,377    106,298    1411
58,367    106,403    1410
58,357    106,403    1410
58,347    106,593    1407
58,337    106,426    1409
58,327    106,385    1410
58,317    106,339    1411
58,307    106,344    1411
58,297    106,367    1410
58,287    106,077    1414
58,277    106,440    1409
58,267    106,265    1412
58,257    106,224    1412
58,247    106,325    1411
58,237    106,164    1413
58,227    106,403    1410
58,217    106,201    1412
58,207    106,265    1412
58,197    106,339    1411
58,187    106,013    1415
58,177    106,077    1414
58,167    106,394    1410
58,157    106,183    1413
58,147    106,399    1410
58,137    106,132    1413
58,127    106,064    1414
58,117    106,486    1409
58,107    106,394    1410
58,097    106,077    1414
58,087    106,403    1410
58,077    106,648    1406
58,067    106,528    1408
58,057    106,537    1408
58,047    106,463    1409
58,037    106,288    1411
58,027    106,408    1410
58,017    106,201    1412
58,007    106,330    1411
57,997    106,542    1408
57,987    106,394    1410
57,977    106,403    1410
57,967    106,206    1412
57,957    106,311    1411
57,947    106,431    1409
57,937    106,219    1412
57,927    106,371    1410
57,917    106,496    1409
57,907    106,174    1413
57,897    106,486    1409
57,887    106,183    1413
57,877    106,385    1410
57,867    106,334    1411
57,857    106,073    1414
57,847    106,376    1410
57,837    106,242    1412
57,827    106,542    1408
57,817    106,491    1409
57,807    106,385    1410
57,797    106,325    1411
57,787    106,417    1410
57,777    106,348    1410
57,767    106,486    1409
57,757    106,146    1413
57,747    106,169    1413
57,737    106,491    1409
57,727    106,468    1409
57,717    106,514    1408
57,707    106,500    1408
57,697    106,454    1409
57,687    106,611    1407
57,677    106,634    1407
57,667    106,270    1411
57,657    106,473    1409
57,647    106,141    1413
57,637    106,279    1411
57,627    106,681    1406
57,617    106,252    1412
57,607    106,298    1411
57,597    106,450    1409
57,587    106,137    1413
57,577    106,316    1411
57,567    106,119    1414
57,557    106,344    1411
57,547    106,436    1409
57,537    106,298    1411
57,527    106,403    1410
57,517    106,201    1412
57,507    106,316    1411
57,497    106,583    1407
57,487    106,201    1412
57,477    106,380    1410
57,467    106,293    1411
57,457    106,233    1412
57,447    106,662    1406
57,437    106,376    1410
57,427    106,348    1410
57,417    106,408    1410
57,407    106,339    1411
57,397    106,820    1404
57,387    106,796    1405
57,377    106,385    1410
57,367    106,459    1409
57,357    106,523    1408
57,347    106,265    1412
57,337    106,137    1413
57,327    106,413    1410
57,317    106,219    1412
57,307    106,500    1408
57,297    106,353    1410
57,287    106,334    1411
57,277    106,653    1406
57,267    106,463    1409
57,257    106,588    1407
57,247    106,565    1408
57,237    106,477    1409
57,227    106,556    1408
57,217    106,708    1406
57,207    106,560    1408
57,197    106,625    1407
57,187    106,334    1411
57,177    106,704    1406
57,167    106,583    1407
57,157    106,699    1406
57,147    106,699    1406
57,137    106,722    1406
57,127    106,848    1404
57,117    106,922    1403
57,107    107,216    1399
57,097    106,973    1402
57,087    106,913    1403
57,077    108,150    1387
57,067    110,953    1352
57,057    107,714    1393
57,047    113,767    1318
57,037    112,502    1333
