Z-Pos[um]|R[MOhm]|I[pA]
59,046    106,533    1408
59,036    106,857    1404
59,026    106,468    1409
59,016    106,978    1402
59,006    106,390    1410
58,996    106,385    1410
58,986    106,298    1411
58,976    106,445    1409
58,966    106,959    1402
58,956    107,113    1400
58,946    106,385    1410
58,936    106,302    1411
58,926    106,523    1408
58,916    106,288    1411
58,906    106,362    1410
58,896    106,284    1411
58,886    106,339    1411
58,876    106,736    1405
58,866    106,183    1413
58,856    106,316    1411
58,846    106,325    1411
58,836    106,270    1411
58,826    106,755    1405
58,816    106,371    1410
58,806    106,459    1409
58,796    106,459    1409
58,786    106,459    1409
58,776    106,722    1406
58,766    106,579    1407
58,756    106,348    1410
58,746    106,523    1408
58,736    106,769    1405
58,726    106,704    1406
58,716    106,229    1412
58,706    106,371    1410
58,696    106,224    1412
58,686    106,528    1408
58,676    106,298    1411
58,666    106,201    1412
58,656    106,486    1409
58,646    106,394    1410
58,636    106,408    1410
58,626    106,068    1414
58,616    106,362    1410
58,606    106,146    1413
58,596    106,325    1411
58,586    106,367    1410
58,576    106,105    1414
58,566    106,482    1409
58,556    106,229    1412
58,546    106,293    1411
58,536    106,376    1410
58,526    106,155    1413
58,516    106,385    1410
58,506    106,500    1408
58,496    106,514    1408
58,486    106,708    1406
58,476    106,820    1404
58,466    106,796    1405
58,456    106,685    1406
58,446    106,894    1403
58,436    106,348    1410
58,426    106,261    1412
58,416    106,376    1410
58,406    106,229    1412
58,396    106,224    1412
58,386    106,339    1411
58,376    106,247    1412
58,366    106,353    1410
58,356    106,417    1410
58,346    106,215    1412
58,336    106,390    1410
58,326    106,413    1410
58,316    106,219    1412
58,306    106,440    1409
58,296    106,353    1410
58,286    106,491    1409
58,276    107,020    1402
58,266    107,043    1401
58,256    106,657    1406
58,246    106,685    1406
58,236    107,038    1401
58,226    106,486    1409
58,216    106,132    1413
58,206    106,436    1409
58,196    106,321    1411
58,186    106,376    1410
58,176    106,514    1408
58,166    106,105    1414
58,156    106,344    1411
58,146    106,160    1413
58,136    106,279    1411
58,126    106,422    1409
58,116    106,077    1414
58,106    106,500    1408
58,096    106,229    1412
58,086    106,302    1411
58,076    106,450    1409
58,066    106,192    1413
58,056    106,348    1410
58,046    106,380    1410
58,036    106,261    1412
58,026    106,339    1411
58,016    106,210    1412
58,006    106,482    1409
57,996    106,843    1404
57,986    106,265    1412
57,976    106,316    1411
57,966    106,321    1411
57,956    106,183    1413
57,946    106,523    1408
57,936    106,160    1413
57,926    106,528    1408
57,916    106,667    1406
57,906    106,927    1403
57,896    106,671    1406
57,886    106,829    1404
57,876    106,829    1404
57,866    106,371    1410
57,856    106,436    1409
57,846    106,394    1410
57,836    106,105    1414
57,826    106,275    1411
57,816    106,436    1409
57,806    106,321    1411
57,796    106,574    1407
57,786    106,187    1413
57,776    106,357    1410
57,766    106,496    1409
57,756    106,242    1412
57,746    106,357    1410
57,736    106,087    1414
57,726    106,073    1414
57,716    106,482    1409
57,706    106,128    1413
57,696    106,583    1407
57,686    106,238    1412
57,676    106,219    1412
57,666    106,486    1409
57,656    106,431    1409
57,646    106,450    1409
57,636    106,496    1409
57,626    106,630    1407
57,616    106,367    1410
57,606    106,436    1409
57,596    106,247    1412
57,586    106,367    1410
57,576    106,454    1409
57,566    106,206    1412
57,556    106,463    1409
57,546    106,238    1412
57,536    106,164    1413
57,526    106,556    1408
57,516    106,394    1410
57,506    106,473    1409
57,496    106,496    1409
57,486    106,311    1411
57,476    106,560    1408
57,466    106,431    1409
57,456    106,238    1412
57,446    106,593    1407
57,436    106,394    1410
57,426    106,496    1409
57,416    106,565    1408
57,406    106,570    1408
57,396    106,593    1407
57,386    106,699    1406
57,376    106,334    1411
57,366    106,639    1407
57,356    106,607    1407
57,346    106,639    1407
57,336    106,796    1405
57,326    106,588    1407
57,316    106,408    1410
57,306    106,769    1405
57,296    106,676    1406
57,286    106,644    1407
57,276    106,667    1406
57,266    106,889    1403
57,256    106,875    1404
57,246    106,810    1404
57,236    106,922    1403
57,226    106,426    1409
57,216    106,579    1407
57,206    106,685    1406
57,196    106,611    1407
57,186    106,899    1403
57,176    106,588    1407
57,166    106,759    1405
57,156    106,792    1405
57,146    107,572    1394
57,136    107,122    1400
57,126    106,551    1408
57,116    107,347    1397
57,106    108,825    1378
57,096    106,936    1403
57,086    107,202    1399
57,076    111,501    1345
57,066    108,007    1389
57,056    122,208    1227
