Z-Pos[um]|R[MOhm]|I[pA]
59,027    106,348    1410
59,017    106,681    1406
59,007    106,560    1408
58,997    106,183    1413
58,987    106,279    1411
58,977    106,293    1411
58,967    106,215    1412
58,957    106,560    1408
58,947    106,265    1412
58,937    106,732    1405
58,927    106,801    1404
58,917    107,071    1401
58,907    106,676    1406
58,897    106,648    1406
58,887    106,880    1403
58,877    106,857    1404
58,867    106,667    1406
58,857    106,773    1405
58,847    106,713    1406
58,837    106,875    1404
58,827    106,792    1405
58,817    106,815    1404
58,807    106,778    1405
58,797    106,992    1402
58,787    106,551    1408
58,777    106,657    1406
58,767    106,750    1405
58,757    106,829    1404
58,747    106,685    1406
58,737    106,616    1407
58,727    106,941    1403
58,717    106,713    1406
58,707    106,611    1407
58,697    106,871    1404
58,687    106,468    1409
58,677    106,357    1410
58,667    106,454    1409
58,657    106,348    1410
58,647    106,096    1414
58,637    106,233    1412
58,627    106,275    1411
58,617    106,450    1409
58,607    106,325    1411
58,597    106,284    1411
58,587    106,440    1409
58,577    106,210    1412
58,567    106,408    1410
58,557    106,620    1407
58,547    106,105    1414
58,537    106,385    1410
58,527    106,334    1411
58,517    106,302    1411
58,507    106,611    1407
58,497    106,132    1413
58,487    106,256    1412
58,477    106,500    1408
58,467    106,325    1411
58,457    106,459    1409
58,447    106,123    1413
58,437    106,431    1409
58,427    106,344    1411
58,417    106,242    1412
58,407    106,348    1410
58,397    106,215    1412
58,387    106,482    1409
58,377    106,473    1409
58,367    106,334    1411
58,357    106,307    1411
58,347    106,059    1414
58,337    106,206    1412
58,327    106,473    1409
58,317    106,242    1412
58,307    106,192    1413
58,297    106,210    1412
58,287    106,187    1413
58,277    106,454    1409
58,267    106,403    1410
58,257    106,210    1412
58,247    106,284    1411
58,237    106,325    1411
58,227    106,440    1409
58,217    106,440    1409
58,207    106,183    1413
58,197    106,491    1409
58,187    106,431    1409
58,177    106,450    1409
58,167    106,426    1409
58,157    105,995    1415
58,147    106,394    1410
58,137    106,431    1409
58,127    106,307    1411
58,117    106,265    1412
58,107    106,128    1413
58,097    106,311    1411
58,087    106,284    1411
58,077    106,450    1409
58,067    106,316    1411
58,057    106,128    1413
58,047    106,353    1410
58,037    106,556    1408
58,027    106,376    1410
58,017    106,390    1410
58,007    105,995    1415
57,997    106,219    1412
57,987    106,376    1410
57,977    106,164    1413
57,967    106,417    1410
57,957    106,528    1408
57,947    106,468    1409
57,937    106,215    1412
57,927    106,417    1410
57,917    106,215    1412
57,907    106,293    1411
57,897    106,422    1409
57,887    106,219    1412
57,877    106,183    1413
57,867    106,252    1412
57,857    106,275    1411
57,847    106,565    1408
57,837    106,334    1411
57,827    106,215    1412
57,817    106,362    1410
57,807    106,229    1412
57,797    106,602    1407
57,787    106,514    1408
57,777    106,210    1412
57,767    106,431    1409
57,757    106,183    1413
57,747    106,630    1407
57,737    107,090    1401
57,727    106,806    1404
57,717    106,574    1407
57,707    106,964    1402
57,697    106,899    1403
57,687    106,648    1406
57,677    106,413    1410
57,667    106,298    1411
57,657    106,348    1410
57,647    106,146    1413
57,637    106,353    1410
57,627    106,560    1408
57,617    106,279    1411
57,607    106,385    1410
57,597    106,229    1412
57,587    106,284    1411
57,577    106,570    1408
57,567    106,183    1413
57,557    106,413    1410
57,547    106,128    1413
57,537    106,270    1411
57,527    106,597    1407
57,517    106,330    1411
57,507    106,256    1412
57,497    106,353    1410
57,487    106,325    1411
57,477    106,357    1410
57,467    106,570    1408
57,457    106,224    1412
57,447    106,417    1410
57,437    106,353    1410
57,427    106,422    1409
57,417    106,394    1410
57,407    106,137    1413
57,397    106,394    1410
57,387    106,542    1408
57,377    106,362    1410
57,367    106,745    1405
57,357    106,376    1410
57,347    106,376    1410
57,337    106,611    1407
57,327    106,376    1410
57,317    106,583    1407
57,307    106,357    1410
57,297    106,620    1407
57,287    106,602    1407
57,277    106,491    1409
57,267    106,597    1407
57,257    106,436    1409
57,247    106,192    1413
57,237    106,676    1406
57,227    106,620    1407
57,217    106,390    1410
57,207    106,408    1410
57,197    106,542    1408
57,187    107,080    1401
57,177    106,829    1404
57,167    106,602    1407
57,157    106,750    1405
57,147    106,954    1402
57,137    106,653    1406
57,127    106,722    1406
57,117    106,667    1406
57,107    107,478    1396
57,097    106,931    1403
57,087    106,783    1405
57,077    107,474    1396
57,067    107,554    1395
57,057    107,431    1396
57,047    108,140    1387
57,037    108,427    1383
57,027    108,169    1387
57,017    139,541    1075
57,007    121,261    1237
