Z-Pos[um]|R[MOhm]|I[pA]
59,007    106,348    1410
58,997    106,713    1406
58,987    106,694    1406
58,977    106,210    1412
58,967    106,390    1410
58,957    106,307    1411
58,947    106,376    1410
58,937    106,611    1407
58,927    106,718    1406
58,917    106,625    1407
58,907    106,657    1406
58,897    106,982    1402
58,887    107,066    1401
58,877    106,653    1406
58,867    106,311    1411
58,857    106,625    1407
58,847    106,224    1412
58,837    106,307    1411
58,827    106,206    1412
58,817    106,298    1411
58,807    106,574    1407
58,797    106,394    1410
58,787    106,741    1405
58,777    107,076    1401
58,767    107,001    1402
58,757    106,992    1402
58,747    106,588    1407
58,737    106,815    1404
58,727    107,164    1400
58,717    106,820    1404
58,707    106,699    1406
58,697    106,486    1409
58,687    106,889    1403
58,677    106,992    1402
58,667    106,169    1413
58,657    106,288    1411
58,647    106,486    1409
58,637    106,399    1410
58,627    106,468    1409
58,617    106,792    1405
58,607    107,094    1401
58,597    106,778    1405
58,587    106,634    1407
58,577    106,570    1408
58,567    106,348    1410
58,557    106,385    1410
58,547    106,394    1410
58,537    106,151    1413
58,527    106,311    1411
58,517    106,519    1408
58,507    106,334    1411
58,497    106,408    1410
58,487    106,137    1413
58,477    106,219    1412
58,467    106,468    1409
58,457    106,279    1411
58,447    106,265    1412
58,437    106,059    1414
58,427    106,390    1410
58,417    106,699    1406
58,407    106,187    1413
58,397    106,279    1411
58,387    106,275    1411
58,377    106,417    1410
58,367    106,602    1407
58,357    106,219    1412
58,347    106,357    1410
58,337    106,242    1412
58,327    106,187    1413
58,317    106,445    1409
58,307    106,353    1410
58,297    106,192    1413
58,287    106,242    1412
58,277    106,242    1412
58,267    106,537    1408
58,257    106,454    1409
58,247    106,183    1413
58,237    106,583    1407
58,227    106,713    1406
58,217    106,325    1411
58,207    106,201    1412
58,197    106,298    1411
58,187    106,224    1412
58,177    106,611    1407
58,167    106,390    1410
58,157    106,096    1414
58,147    106,302    1411
58,137    106,210    1412
58,127    106,514    1408
58,117    106,556    1408
58,107    106,238    1412
58,097    106,417    1410
58,087    106,219    1412
58,077    106,431    1409
58,067    106,607    1407
58,057    106,109    1414
58,047    106,394    1410
58,037    106,192    1413
58,027    106,422    1409
58,017    106,611    1407
58,007    106,087    1414
57,997    106,252    1412
57,987    106,376    1410
57,977    106,357    1410
57,967    106,459    1409
57,957    106,109    1414
57,947    106,431    1409
57,937    106,500    1408
57,927    106,325    1411
57,917    106,408    1410
57,907    106,146    1413
57,897    106,192    1413
57,887    106,459    1409
57,877    106,275    1411
57,867    106,353    1410
57,857    106,183    1413
57,847    106,073    1414
57,837    106,496    1409
57,827    106,321    1411
57,817    106,473    1409
57,807    106,197    1412
57,797    106,100    1414
57,787    106,500    1408
57,777    106,311    1411
57,767    106,279    1411
57,757    106,252    1412
57,747    106,252    1412
57,737    106,505    1408
57,727    106,164    1413
57,717    106,302    1411
57,707    106,316    1411
57,697    106,385    1410
57,687    106,298    1411
57,677    106,316    1411
57,667    106,284    1411
57,657    106,810    1404
57,647    107,024    1402
57,637    107,441    1396
57,627    106,215    1412
57,617    106,450    1409
57,607    106,284    1411
57,597    106,399    1410
57,587    106,440    1409
57,577    106,238    1412
57,567    106,537    1408
57,557    106,528    1408
57,547    106,293    1411
57,537    106,509    1408
57,527    106,132    1413
57,517    106,242    1412
57,507    106,496    1409
57,497    106,385    1410
57,487    106,247    1412
57,477    106,307    1411
57,467    106,307    1411
57,457    106,736    1405
57,447    106,463    1409
57,437    106,796    1405
57,427    106,899    1403
57,417    106,727    1405
57,407    106,486    1409
57,397    106,371    1410
57,387    106,178    1413
57,377    106,783    1405
57,367    106,380    1410
57,357    106,500    1408
57,347    106,233    1412
57,337    106,385    1410
57,327    106,653    1406
57,317    106,362    1410
57,307    106,482    1409
57,297    106,247    1412
57,287    106,302    1411
57,277    106,583    1407
57,267    106,445    1409
57,257    106,450    1409
57,247    106,399    1410
57,237    106,348    1410
57,227    106,634    1407
57,217    106,482    1409
57,207    106,321    1411
57,197    106,880    1403
57,187    106,473    1409
57,177    107,062    1401
57,167    107,062    1401
57,157    106,362    1410
57,147    106,500    1408
57,137    106,848    1404
57,127    106,463    1409
57,117    106,866    1404
57,107    106,699    1406
57,097    106,542    1408
57,087    107,150    1400
57,077    108,245    1386
57,067    106,602    1407
57,057    106,945    1403
57,047    117,157    1280
57,037    107,431    1396
57,027    109,563    1369
57,017    115,115    1303
