Z-Pos[um]|R[MOhm]|I[pA]
58,967    106,371    1410
58,957    106,556    1408
58,947    106,468    1409
58,937    106,505    1408
58,927    106,408    1410
58,917    106,279    1411
58,907    106,068    1414
58,897    106,247    1412
58,887    106,565    1408
58,877    106,187    1413
58,867    106,307    1411
58,857    106,311    1411
58,847    106,164    1413
58,837    106,491    1409
58,827    106,261    1412
58,817    106,164    1413
58,807    106,390    1410
58,797    106,284    1411
58,787    106,500    1408
58,777    106,353    1410
58,767    106,238    1412
58,757    106,339    1411
58,747    106,233    1412
58,737    106,486    1409
58,727    106,275    1411
58,717    106,059    1414
58,707    106,339    1411
58,697    106,293    1411
58,687    106,362    1410
58,677    106,371    1410
58,667    106,279    1411
58,657    106,348    1410
58,647    106,339    1411
58,637    106,390    1410
58,627    106,367    1410
58,617    106,146    1413
58,607    106,224    1412
58,597    106,256    1412
58,587    106,307    1411
58,577    106,486    1409
58,567    106,178    1413
58,557    106,215    1412
58,547    106,380    1410
58,537    106,330    1411
58,527    106,334    1411
58,517    106,247    1412
58,507    106,215    1412
58,497    106,417    1410
58,487    106,256    1412
58,477    106,252    1412
58,467    106,197    1412
58,457    106,160    1413
58,447    106,380    1410
58,437    106,151    1413
58,427    106,450    1409
58,417    106,261    1412
58,407    106,270    1411
58,397    106,551    1408
58,387    106,178    1413
58,377    106,311    1411
58,367    106,169    1413
58,357    106,160    1413
58,347    106,597    1407
58,337    106,330    1411
58,327    106,132    1413
58,317    106,302    1411
58,307    106,201    1412
58,297    106,440    1409
58,287    106,256    1412
58,277    106,252    1412
58,267    106,357    1410
58,257    106,321    1411
58,247    106,509    1408
58,237    106,431    1409
58,227    106,169    1413
58,217    106,408    1410
58,207    106,247    1412
58,197    106,551    1408
58,187    106,570    1408
58,177    106,565    1408
58,167    106,509    1408
58,157    106,588    1407
58,147    106,426    1409
58,137    106,514    1408
58,127    106,570    1408
58,117    106,565    1408
58,107    106,653    1406
58,097    106,426    1409
58,087    106,316    1411
58,077    106,431    1409
58,067    106,681    1406
58,057    106,496    1409
58,047    106,247    1412
58,037    106,667    1406
58,027    106,727    1405
58,017    106,394    1410
58,007    106,436    1409
57,997    106,096    1414
57,987    106,408    1410
57,977    106,348    1410
57,967    106,128    1413
57,957    106,353    1410
57,947    106,096    1414
57,937    106,183    1413
57,927    106,417    1410
57,917    106,247    1412
57,907    106,339    1411
57,897    106,247    1412
57,887    106,155    1413
57,877    106,537    1408
57,867    106,431    1409
57,857    106,265    1412
57,847    106,334    1411
57,837    106,197    1412
57,827    106,496    1409
57,817    106,091    1414
57,807    106,279    1411
57,797    106,394    1410
57,787    106,284    1411
57,777    106,413    1410
57,767    106,210    1412
57,757    106,233    1412
57,747    106,459    1409
57,737    106,256    1412
57,727    106,473    1409
57,717    106,279    1411
57,707    106,192    1413
57,697    106,422    1409
57,687    106,473    1409
57,677    106,903    1403
57,667    106,843    1404
57,657    106,560    1408
57,647    106,496    1409
57,637    106,778    1405
57,627    106,848    1404
57,617    106,570    1408
57,607    106,796    1405
57,597    106,889    1403
57,587    106,922    1403
57,577    106,109    1414
57,567    106,436    1409
57,557    106,450    1409
57,547    106,275    1411
57,537    106,468    1409
57,527    106,192    1413
57,517    106,473    1409
57,507    106,500    1408
57,497    106,229    1412
57,487    106,344    1411
57,477    106,279    1411
57,467    106,348    1410
57,457    106,588    1407
57,447    106,417    1410
57,437    106,399    1410
57,427    106,238    1412
57,417    106,242    1412
57,407    106,486    1409
57,397    106,330    1411
57,387    106,463    1409
57,377    106,399    1410
57,367    106,247    1412
57,357    106,436    1409
57,347    106,519    1408
57,337    106,242    1412
57,327    106,848    1404
57,317    106,403    1410
57,307    106,491    1409
57,297    106,473    1409
57,287    106,275    1411
57,277    106,440    1409
57,267    106,385    1410
57,257    106,560    1408
57,247    106,482    1409
57,237    106,252    1412
57,227    106,344    1411
57,217    106,459    1409
57,207    106,482    1409
57,197    106,403    1410
57,187    106,380    1410
57,177    106,514    1408
57,167    106,704    1406
57,157    106,459    1409
57,147    106,602    1407
57,137    106,852    1404
57,127    106,783    1405
57,117    106,834    1404
57,107    106,778    1405
57,097    106,634    1407
57,087    106,778    1405
57,077    106,829    1404
57,067    107,174    1400
57,057    106,936    1403
57,047    106,533    1408
57,037    107,281    1398
57,027    108,374    1384
57,017    107,422    1396
57,007    108,255    1386
56,997    108,647    1381
56,987    108,283    1385
56,977    109,368    1372
56,967    109,227    1373
