Z-Pos[um]|R[MOhm]|I[pA]
59,029    106,468    1409
59,019    106,801    1404
59,009    106,380    1410
58,999    106,574    1407
58,989    106,403    1410
58,979    106,445    1409
58,969    106,242    1412
58,959    106,270    1411
58,949    106,597    1407
58,939    106,348    1410
58,929    106,422    1409
58,919    106,477    1409
58,909    106,657    1406
58,899    106,736    1405
58,889    106,556    1408
58,879    106,316    1411
58,869    106,861    1404
58,859    106,514    1408
58,849    106,344    1411
58,839    106,551    1408
58,829    106,100    1414
58,819    106,463    1409
58,809    106,570    1408
58,799    106,344    1411
58,789    106,261    1412
58,779    106,348    1410
58,769    106,270    1411
58,759    106,551    1408
58,749    106,229    1412
58,739    106,408    1410
58,729    106,316    1411
58,719    106,174    1413
58,709    106,436    1409
58,699    106,644    1407
58,689    106,546    1408
58,679    106,482    1409
58,669    106,450    1409
58,659    106,197    1412
58,649    106,215    1412
58,639    106,426    1409
58,629    106,380    1410
58,619    106,533    1408
58,609    106,279    1411
58,599    106,192    1413
58,589    106,431    1409
58,579    106,256    1412
58,569    106,344    1411
58,559    106,353    1410
58,549    106,155    1413
58,539    106,307    1411
58,529    106,491    1409
58,519    106,413    1410
58,509    106,307    1411
58,499    106,087    1414
58,489    106,459    1409
58,479    106,834    1404
58,469    106,436    1409
58,459    106,482    1409
58,449    106,556    1408
58,439    106,519    1408
58,429    106,565    1408
58,419    106,607    1407
58,409    106,151    1413
58,399    106,376    1410
58,389    106,509    1408
58,379    106,275    1411
58,369    106,426    1409
58,359    106,210    1412
58,349    106,284    1411
58,339    106,514    1408
58,329    106,307    1411
58,319    106,261    1412
58,309    106,141    1413
58,299    106,164    1413
58,289    106,468    1409
58,279    106,422    1409
58,269    106,164    1413
58,259    106,311    1411
58,249    106,344    1411
58,239    106,399    1410
58,229    106,348    1410
58,219    106,119    1414
58,209    106,325    1411
58,199    106,330    1411
58,189    106,815    1404
58,179    106,834    1404
58,169    106,648    1406
58,159    106,708    1406
58,149    106,866    1404
58,139    106,815    1404
58,129    106,334    1411
58,119    106,302    1411
58,109    106,459    1409
58,099    106,288    1411
58,089    106,252    1412
58,079    106,109    1414
58,069    106,390    1410
58,059    106,408    1410
58,049    106,169    1413
58,039    106,321    1411
58,029    106,256    1412
58,019    106,247    1412
58,009    106,445    1409
57,999    106,247    1412
57,989    106,367    1410
57,979    106,252    1412
57,969    106,357    1410
57,959    106,704    1406
57,949    106,783    1405
57,939    106,330    1411
57,929    106,505    1408
57,919    106,764    1405
57,909    106,639    1407
57,899    106,132    1413
57,889    106,275    1411
57,879    106,210    1412
57,869    106,570    1408
57,859    106,210    1412
57,849    106,123    1413
57,839    106,357    1410
57,829    106,431    1409
57,819    106,334    1411
57,809    106,307    1411
57,799    106,298    1411
57,789    106,408    1410
57,779    106,247    1412
57,769    106,482    1409
57,759    106,468    1409
57,749    106,160    1413
57,739    106,477    1409
57,729    106,403    1410
57,719    106,445    1409
57,709    106,256    1412
57,699    106,316    1411
57,689    106,293    1411
57,679    106,330    1411
57,669    106,380    1410
57,659    106,607    1407
57,649    106,224    1412
57,639    106,394    1410
57,629    106,307    1411
57,619    106,380    1410
57,609    106,560    1408
57,599    106,215    1412
57,589    106,385    1410
57,579    106,486    1409
57,569    106,385    1410
57,559    106,362    1410
57,549    106,265    1412
57,539    106,321    1411
57,529    106,607    1407
57,519    106,151    1413
57,509    106,376    1410
57,499    106,275    1411
57,489    106,348    1410
57,479    106,519    1408
57,469    106,247    1412
57,459    106,380    1410
57,449    106,288    1411
57,439    106,556    1408
57,429    106,426    1409
57,419    106,307    1411
57,409    106,486    1409
57,399    106,265    1412
57,389    106,233    1412
57,379    106,417    1410
57,369    106,528    1408
57,359    106,242    1412
57,349    106,496    1409
57,339    106,399    1410
57,329    106,394    1410
57,319    106,436    1409
57,309    106,265    1412
57,299    106,597    1407
57,289    106,542    1408
57,279    106,367    1410
57,269    106,445    1409
57,259    106,371    1410
57,249    106,537    1408
57,239    106,708    1406
57,229    106,454    1409
57,219    106,491    1409
57,209    106,426    1409
57,199    106,690    1406
57,189    107,076    1401
57,179    106,913    1403
57,169    106,560    1408
57,159    106,964    1402
57,149    107,150    1400
57,139    106,871    1404
57,129    107,034    1401
57,119    107,253    1399
57,109    107,263    1398
57,099    107,737    1392
57,089    112,491    1333
57,079    106,755    1405
57,069    116,248    1290
57,059    107,998    1389
57,049    1414,040    106
57,039    107,558    1395
57,029    372,985    402
57,019    225,055    667
