Z-Pos[um]|R[MOhm]|I[pA]
59,059    106,496    1409
59,049    106,755    1405
59,039    106,307    1411
59,029    106,708    1406
59,019    106,307    1411
59,009    106,496    1409
58,999    106,468    1409
58,989    106,096    1414
58,979    106,519    1408
58,969    106,187    1413
58,959    106,491    1409
58,949    106,348    1410
58,939    106,192    1413
58,929    106,431    1409
58,919    106,450    1409
58,909    106,440    1409
58,899    106,353    1410
58,889    106,091    1414
58,879    106,353    1410
58,869    106,496    1409
58,859    106,151    1413
58,849    106,440    1409
58,839    106,298    1411
58,829    106,128    1413
58,819    106,482    1409
58,809    106,164    1413
58,799    106,718    1406
58,789    106,468    1409
58,779    106,463    1409
58,769    106,801    1404
58,759    106,551    1408
58,749    106,353    1410
58,739    106,482    1409
58,729    106,616    1407
58,719    106,542    1408
58,709    106,593    1407
58,699    106,468    1409
58,689    106,482    1409
58,679    106,690    1406
58,669    106,648    1406
58,659    106,210    1412
58,649    106,353    1410
58,639    106,302    1411
58,629    106,316    1411
58,619    106,436    1409
58,609    106,206    1412
58,599    106,247    1412
58,589    106,634    1407
58,579    106,537    1408
58,569    106,644    1407
58,559    106,500    1408
58,549    106,353    1410
58,539    106,459    1409
58,529    106,265    1412
58,519    106,197    1412
58,509    106,265    1412
58,499    106,178    1413
58,489    106,662    1406
58,479    106,408    1410
58,469    106,169    1413
58,459    106,445    1409
58,449    106,155    1413
58,439    106,417    1410
58,429    106,321    1411
58,419    106,073    1414
58,409    106,394    1410
58,399    106,371    1410
58,389    106,426    1409
58,379    106,348    1410
58,369    106,022    1415
58,359    106,454    1409
58,349    106,514    1408
58,339    106,570    1408
58,329    106,459    1409
58,319    106,468    1409
58,309    106,542    1408
58,299    106,792    1405
58,289    106,519    1408
58,279    106,082    1414
58,269    106,293    1411
58,259    106,298    1411
58,249    106,353    1410
58,239    106,275    1411
58,229    106,054    1414
58,219    106,339    1411
58,209    106,482    1409
58,199    106,307    1411
58,189    106,247    1412
58,179    106,073    1414
58,169    106,302    1411
58,159    106,473    1409
58,149    106,376    1410
58,139    106,339    1411
58,129    106,059    1414
58,119    106,265    1412
58,109    106,417    1410
58,099    106,357    1410
58,089    106,486    1409
58,079    106,219    1412
58,069    106,344    1411
58,059    106,394    1410
58,049    106,261    1412
58,039    106,371    1410
58,029    106,252    1412
58,019    106,270    1411
58,009    106,500    1408
57,999    106,330    1411
57,989    106,114    1414
57,979    106,284    1411
57,969    106,210    1412
57,959    106,542    1408
57,949    106,155    1413
57,939    106,164    1413
57,929    106,279    1411
57,919    106,316    1411
57,909    106,500    1408
57,899    106,265    1412
57,889    106,100    1414
57,879    106,270    1411
57,869    106,284    1411
57,859    106,408    1410
57,849    106,330    1411
57,839    106,151    1413
57,829    106,764    1405
57,819    106,468    1409
57,809    106,630    1407
57,799    106,486    1409
57,789    106,486    1409
57,779    106,505    1408
57,769    106,866    1404
57,759    106,357    1410
57,749    106,477    1409
57,739    106,316    1411
57,729    106,579    1407
57,719    106,634    1407
57,709    106,174    1413
57,699    106,519    1408
57,689    106,385    1410
57,679    106,440    1409
57,669    106,616    1407
57,659    106,119    1414
57,649    106,560    1408
57,639    106,371    1410
57,629    106,385    1410
57,619    106,316    1411
57,609    106,242    1412
57,599    106,348    1410
57,589    106,648    1406
57,579    106,667    1406
57,569    106,385    1410
57,559    106,718    1406
57,549    106,436    1409
57,539    106,473    1409
57,529    106,463    1409
57,519    106,279    1411
57,509    106,348    1410
57,499    106,450    1409
57,489    106,321    1411
57,479    106,288    1411
57,469    106,500    1408
57,459    106,247    1412
57,449    106,482    1409
57,439    106,454    1409
57,429    106,252    1412
57,419    106,523    1408
57,409    106,371    1410
57,399    106,722    1406
57,389    106,648    1406
57,379    106,311    1411
57,369    106,560    1408
57,359    106,183    1413
57,349    106,593    1407
57,339    106,565    1408
57,329    106,252    1412
57,319    106,708    1406
57,309    106,371    1410
57,299    106,440    1409
57,289    106,597    1407
57,279    106,348    1410
57,269    106,565    1408
57,259    106,417    1410
57,249    106,574    1407
57,239    106,685    1406
57,229    106,463    1409
57,219    106,722    1406
57,209    106,755    1405
57,199    106,648    1406
57,189    106,773    1405
57,179    106,620    1407
57,169    106,528    1408
57,159    106,848    1404
57,149    107,155    1400
57,139    106,903    1403
57,129    106,759    1405
57,119    107,549    1395
57,109    107,568    1394
57,099    107,080    1401
57,089    108,676    1380
57,079    110,414    1359
57,069    108,652    1381
57,059    136,329    1100
