Z-Pos[um]|R[MOhm]|I[pA]
59,061    106,247    1412
59,051    106,959    1402
59,041    106,486    1409
59,031    106,426    1409
59,021    106,509    1408
59,011    106,275    1411
59,001    106,426    1409
58,991    106,496    1409
58,981    106,367    1410
58,971    106,399    1410
58,961    106,242    1412
58,951    106,105    1414
58,941    106,528    1408
58,931    107,347    1397
58,921    106,390    1410
58,911    106,371    1410
58,901    106,579    1407
58,891    106,316    1411
58,881    106,256    1412
58,871    106,316    1411
58,861    106,311    1411
58,851    106,570    1408
58,841    106,385    1410
58,831    106,242    1412
58,821    106,376    1410
58,811    106,325    1411
58,801    106,482    1409
58,791    106,491    1409
58,781    106,528    1408
58,771    106,773    1405
58,761    106,964    1402
58,751    106,792    1405
58,741    106,496    1409
58,731    106,959    1402
58,721    106,838    1404
58,711    106,160    1413
58,701    106,417    1410
58,691    106,261    1412
58,681    106,380    1410
58,671    106,486    1409
58,661    106,339    1411
58,651    106,653    1406
58,641    106,597    1407
58,631    106,390    1410
58,621    106,325    1411
58,611    106,551    1408
58,601    106,348    1410
58,591    106,593    1407
58,581    106,727    1405
58,571    106,284    1411
58,561    106,408    1410
58,551    106,229    1412
58,541    106,229    1412
58,531    106,542    1408
58,521    106,164    1413
58,511    106,376    1410
58,501    106,339    1411
58,491    106,128    1413
58,481    106,523    1408
58,471    106,353    1410
58,461    106,238    1412
58,451    106,431    1409
58,441    106,229    1412
58,431    106,436    1409
58,421    106,353    1410
58,411    106,422    1409
58,401    106,426    1409
58,391    106,197    1412
58,381    106,496    1409
58,371    106,477    1409
58,361    106,128    1413
58,351    106,505    1408
58,341    106,380    1410
58,331    106,473    1409
58,321    106,454    1409
58,311    105,917    1416
58,301    106,178    1413
58,291    106,440    1409
58,281    106,316    1411
58,271    106,325    1411
58,261    106,311    1411
58,251    106,394    1410
58,241    106,653    1406
58,231    106,330    1411
58,221    106,197    1412
58,211    106,201    1412
58,201    106,321    1411
58,191    106,523    1408
58,181    106,348    1410
58,171    106,192    1413
58,161    106,357    1410
58,151    106,325    1411
58,141    106,579    1407
58,131    106,394    1410
58,121    106,215    1412
58,111    106,371    1410
58,101    106,151    1413
58,091    106,463    1409
58,081    106,496    1409
58,071    106,238    1412
58,061    106,468    1409
58,051    106,242    1412
58,041    106,422    1409
58,031    106,362    1410
58,021    106,077    1414
58,011    106,500    1408
58,001    106,408    1410
57,991    106,353    1410
57,981    106,422    1409
57,971    106,050    1414
57,961    106,394    1410
57,951    106,459    1409
57,941    106,321    1411
57,931    106,468    1409
57,921    106,192    1413
57,911    106,357    1410
57,901    106,574    1407
57,891    106,233    1412
57,881    106,367    1410
57,871    106,183    1413
57,861    106,197    1412
57,851    106,500    1408
57,841    106,238    1412
57,831    106,330    1411
57,821    106,275    1411
57,811    106,265    1412
57,801    106,542    1408
57,791    106,325    1411
57,781    106,325    1411
57,771    106,357    1410
57,761    106,261    1412
57,751    106,607    1407
57,741    106,348    1410
57,731    106,376    1410
57,721    106,463    1409
57,711    106,394    1410
57,701    106,769    1405
57,691    106,843    1404
57,681    106,597    1407
57,671    106,537    1408
57,661    106,583    1407
57,651    106,275    1411
57,641    106,279    1411
57,631    106,252    1412
57,621    106,307    1411
57,611    106,593    1407
57,601    106,330    1411
57,591    106,141    1413
57,581    106,275    1411
57,571    106,348    1410
57,561    106,653    1406
57,551    106,463    1409
57,541    106,252    1412
57,531    106,399    1410
57,521    106,279    1411
57,511    106,528    1408
57,501    106,533    1408
57,491    106,380    1410
57,481    106,265    1412
57,471    106,537    1408
57,461    106,256    1412
57,451    106,468    1409
57,441    106,792    1405
57,431    106,676    1406
57,421    106,602    1407
57,411    106,815    1404
57,401    106,676    1406
57,391    106,625    1407
57,381    106,978    1402
57,371    106,694    1406
57,361    106,657    1406
57,351    106,769    1405
57,341    106,866    1404
57,331    106,769    1405
57,321    106,667    1406
57,311    106,620    1407
57,301    106,759    1405
57,291    106,950    1403
57,281    106,838    1404
57,271    106,778    1405
57,261    106,996    1402
57,251    107,076    1401
57,241    107,029    1401
57,231    106,801    1404
57,221    106,964    1402
57,211    107,220    1399
57,201    107,799    1391
57,191    106,838    1404
57,181    106,875    1404
57,171    107,827    1391
57,161    106,968    1402
57,151    106,806    1404
57,141    106,796    1405
57,131    109,076    1375
57,121    107,146    1400
57,111    106,588    1407
57,101    109,945    1364
57,091    106,987    1402
57,081    108,403    1384
57,071    124,637    1203
57,061    122,427    1225
