Z-Pos[um]|R[MOhm]|I[pA]
59,066    106,119    1414
59,056    106,681    1406
59,046    106,445    1409
59,036    106,174    1413
59,026    106,403    1410
59,016    106,233    1412
59,006    106,183    1413
58,996    106,334    1411
58,986    106,588    1407
58,976    106,657    1406
58,966    106,908    1403
58,956    106,759    1405
58,946    106,367    1410
58,936    106,334    1411
58,926    106,197    1412
58,916    106,242    1412
58,906    106,482    1409
58,896    106,325    1411
58,886    106,275    1411
58,876    106,380    1410
58,866    106,141    1413
58,856    106,334    1411
58,846    106,325    1411
58,836    106,210    1412
58,826    106,390    1410
58,816    106,242    1412
58,806    106,505    1408
58,796    106,857    1404
58,786    106,611    1407
58,776    106,537    1408
58,766    106,468    1409
58,756    106,390    1410
58,746    106,197    1412
58,736    106,546    1408
58,726    106,454    1409
58,716    106,307    1411
58,706    106,417    1410
58,696    106,059    1414
58,686    106,385    1410
58,676    106,473    1409
58,666    106,390    1410
58,656    106,279    1411
58,646    106,041    1415
58,636    106,403    1410
58,626    106,505    1408
58,616    106,284    1411
58,606    106,247    1412
58,596    106,146    1413
58,586    106,334    1411
58,576    106,588    1407
58,566    106,261    1412
58,556    106,141    1413
58,546    106,288    1411
58,536    106,380    1410
58,526    106,685    1406
58,516    106,556    1408
58,506    106,114    1414
58,496    106,426    1409
58,486    106,151    1413
58,476    106,454    1409
58,466    106,334    1411
58,456    106,100    1414
58,446    106,357    1410
58,436    106,261    1412
58,426    106,413    1410
58,416    106,380    1410
58,406    106,219    1412
58,396    106,463    1409
58,386    106,533    1408
58,376    106,380    1410
58,366    106,050    1414
58,356    106,394    1410
58,346    106,417    1410
58,336    106,247    1412
58,326    106,727    1405
58,316    106,593    1407
58,306    106,634    1407
58,296    107,080    1401
58,286    106,992    1402
58,276    106,852    1404
58,266    106,787    1405
58,256    106,302    1411
58,246    106,041    1415
58,236    106,316    1411
58,226    106,279    1411
58,216    106,436    1409
58,206    106,523    1408
58,196    106,174    1413
58,186    106,293    1411
58,176    106,486    1409
58,166    106,238    1412
58,156    106,321    1411
58,146    106,183    1413
58,136    106,344    1411
58,126    106,593    1407
58,116    106,491    1409
58,106    106,519    1408
58,096    106,247    1412
58,086    106,229    1412
58,076    106,496    1409
58,066    106,224    1412
58,056    106,183    1413
58,046    106,247    1412
58,036    106,413    1410
58,026    106,445    1409
58,016    106,417    1410
58,006    106,059    1414
57,996    106,445    1409
57,986    106,307    1411
57,976    106,357    1410
57,966    106,403    1410
57,956    106,834    1404
57,946    106,261    1412
57,936    106,224    1412
57,926    106,385    1410
57,916    106,155    1413
57,906    106,330    1411
57,896    106,275    1411
57,886    106,270    1411
57,876    106,413    1410
57,866    106,128    1413
57,856    106,298    1411
57,846    106,514    1408
57,836    106,187    1413
57,826    106,376    1410
57,816    106,050    1414
57,806    106,164    1413
57,796    106,468    1409
57,786    106,197    1412
57,776    106,330    1411
57,766    106,183    1413
57,756    106,146    1413
57,746    106,519    1408
57,736    106,293    1411
57,726    106,256    1412
57,716    106,334    1411
57,706    106,128    1413
57,696    106,519    1408
57,686    106,146    1413
57,676    106,242    1412
57,666    106,426    1409
57,656    106,321    1411
57,646    106,514    1408
57,636    106,334    1411
57,626    106,348    1410
57,616    106,454    1409
57,606    106,311    1411
57,596    106,491    1409
57,586    106,810    1404
57,576    106,334    1411
57,566    106,426    1409
57,556    106,348    1410
57,546    106,477    1409
57,536    106,482    1409
57,526    106,252    1412
57,516    106,219    1412
57,506    106,288    1411
57,496    106,445    1409
57,486    106,454    1409
57,476    106,169    1413
57,466    106,394    1410
57,456    106,560    1408
57,446    106,265    1412
57,436    106,344    1411
57,426    106,247    1412
57,416    106,288    1411
57,406    106,477    1409
57,396    106,321    1411
57,386    106,620    1407
57,376    106,440    1409
57,366    106,394    1410
57,356    106,500    1408
57,346    106,362    1410
57,336    106,357    1410
57,326    106,436    1409
57,316    106,293    1411
57,306    106,514    1408
57,296    106,593    1407
57,286    106,380    1410
57,276    106,542    1408
57,266    106,325    1411
57,256    106,625    1407
57,246    106,514    1408
57,236    106,252    1412
57,226    106,667    1406
57,216    106,509    1408
57,206    106,588    1407
57,196    106,741    1405
57,186    106,662    1406
57,176    106,681    1406
57,166    106,482    1409
57,156    106,880    1403
57,146    107,384    1397
57,136    106,741    1405
57,126    106,815    1404
57,116    106,694    1406
57,106    109,685    1368
57,096    107,389    1397
57,086    110,399    1359
57,076    108,460    1383
57,066    109,072    1375
57,056    107,799    1391
57,046    112,373    1335
