Z-Pos[um]|R[MOhm]|I[pA]
59,031    106,164    1413
59,021    107,192    1399
59,011    106,316    1411
59,001    106,302    1411
58,991    106,403    1410
58,981    106,256    1412
58,971    106,551    1408
58,961    106,187    1413
58,951    106,284    1411
58,941    106,279    1411
58,931    106,330    1411
58,921    106,431    1409
58,911    106,505    1408
58,901    106,169    1413
58,891    106,376    1410
58,881    106,265    1412
58,871    106,616    1407
58,861    106,708    1406
58,851    106,219    1412
58,841    106,500    1408
58,831    106,192    1413
58,821    106,348    1410
58,811    106,459    1409
58,801    106,073    1414
58,791    106,459    1409
58,781    106,233    1412
58,771    106,422    1409
58,761    106,247    1412
58,751    106,178    1413
58,741    106,509    1408
58,731    106,380    1410
58,721    106,339    1411
58,711    106,293    1411
58,701    106,247    1412
58,691    106,408    1410
58,681    106,215    1412
58,671    106,316    1411
58,661    106,463    1409
58,651    106,219    1412
58,641    106,242    1412
58,631    106,620    1407
58,621    106,197    1412
58,611    106,773    1405
58,601    106,183    1413
58,591    106,431    1409
58,581    106,560    1408
58,571    106,330    1411
58,561    106,334    1411
58,551    106,362    1410
58,541    106,321    1411
58,531    106,764    1405
58,521    106,519    1408
58,511    106,602    1407
58,501    106,834    1404
58,491    106,964    1402
58,481    107,066    1401
58,471    106,454    1409
58,461    106,866    1404
58,451    106,987    1402
58,441    106,964    1402
58,431    106,778    1405
58,421    106,385    1410
58,411    106,625    1407
58,401    106,390    1410
58,391    106,348    1410
58,381    106,169    1413
58,371    106,357    1410
58,361    106,514    1408
58,351    106,261    1412
58,341    106,293    1411
58,331    106,270    1411
58,321    106,233    1412
58,311    106,583    1407
58,301    106,247    1412
58,291    106,233    1412
58,281    106,463    1409
58,271    106,178    1413
58,261    106,422    1409
58,251    106,579    1407
58,241    106,164    1413
58,231    106,496    1409
58,221    106,339    1411
58,211    106,468    1409
58,201    106,463    1409
58,191    106,219    1412
58,181    106,344    1411
58,171    106,514    1408
58,161    106,431    1409
58,151    106,399    1410
58,141    106,096    1414
58,131    106,560    1408
58,121    106,376    1410
58,111    106,362    1410
58,101    106,399    1410
58,091    106,215    1412
58,081    106,256    1412
58,071    106,468    1409
58,061    106,302    1411
58,051    106,468    1409
58,041    106,151    1413
58,031    106,151    1413
58,021    106,431    1409
58,011    106,155    1413
58,001    106,252    1412
57,991    106,279    1411
57,981    106,293    1411
57,971    106,653    1406
57,961    106,224    1412
57,951    106,311    1411
57,941    106,279    1411
57,931    106,500    1408
57,921    106,824    1404
57,911    106,699    1406
57,901    106,519    1408
57,891    106,339    1411
57,881    106,413    1410
57,871    106,307    1411
57,861    106,509    1408
57,851    106,302    1411
57,841    106,284    1411
57,831    106,399    1410
57,821    106,119    1414
57,811    106,463    1409
57,801    106,252    1412
57,791    106,192    1413
57,781    106,607    1407
57,771    106,261    1412
57,761    106,229    1412
57,751    106,210    1412
57,741    106,838    1404
57,731    107,258    1398
57,721    107,108    1400
57,711    106,671    1406
57,701    106,330    1411
57,691    106,468    1409
57,681    106,174    1413
57,671    106,330    1411
57,661    106,399    1410
57,651    106,344    1411
57,641    107,127    1400
57,631    106,256    1412
57,621    106,422    1409
57,611    106,247    1412
57,601    106,620    1407
57,591    106,486    1409
57,581    106,224    1412
57,571    106,482    1409
57,561    106,325    1411
57,551    106,422    1409
57,541    106,422    1409
57,531    106,394    1410
57,521    106,477    1409
57,511    106,284    1411
57,501    106,403    1410
57,491    106,639    1407
57,481    106,505    1408
57,471    106,357    1410
57,461    106,773    1405
57,451    106,307    1411
57,441    106,436    1409
57,431    106,261    1412
57,421    106,371    1410
57,411    107,090    1401
57,401    107,085    1401
57,391    106,630    1407
57,381    106,778    1405
57,371    107,249    1399
57,361    106,653    1406
57,351    106,238    1412
57,341    106,100    1414
57,331    106,634    1407
57,321    106,565    1408
57,311    106,426    1409
57,301    106,445    1409
57,291    106,468    1409
57,281    106,662    1406
57,271    106,630    1407
57,261    106,330    1411
57,251    106,579    1407
57,241    106,454    1409
57,231    106,611    1407
57,221    106,644    1407
57,211    106,422    1409
57,201    106,899    1403
57,191    106,783    1405
57,181    106,773    1405
57,171    107,001    1402
57,161    106,787    1405
57,151    106,597    1407
57,141    107,211    1399
57,131    107,399    1397
57,121    106,468    1409
57,111    106,982    1402
57,101    107,516    1395
57,091    107,832    1391
57,081    107,469    1396
57,071    106,936    1403
57,061    107,085    1401
57,051    108,274    1385
57,041    108,873    1378
57,031    108,422    1383
57,021    108,527    1382
57,011    111,239    1348
