Z-Pos[um]|R[MOhm]|I[pA]
59,052    106,390    1410
59,042    106,741    1405
59,032    106,201    1412
59,022    106,440    1409
59,012    106,579    1407
59,002    106,219    1412
58,992    106,330    1411
58,982    106,210    1412
58,972    106,164    1413
58,962    106,482    1409
58,952    106,178    1413
58,942    106,431    1409
58,932    106,482    1409
58,922    106,477    1409
58,912    106,265    1412
58,902    106,123    1413
58,892    106,376    1410
58,882    106,376    1410
58,872    106,509    1408
58,862    106,330    1411
58,852    105,958    1416
58,842    106,279    1411
58,832    106,440    1409
58,822    106,417    1410
58,812    107,099    1401
58,802    106,298    1411
58,792    106,718    1406
58,782    106,829    1404
58,772    106,325    1411
58,762    106,146    1413
58,752    106,339    1411
58,742    106,348    1410
58,732    106,413    1410
58,722    106,298    1411
58,712    105,977    1415
58,702    106,486    1409
58,692    106,436    1409
58,682    106,293    1411
58,672    106,325    1411
58,662    106,699    1406
58,652    106,206    1412
58,642    106,431    1409
58,632    106,183    1413
58,622    106,334    1411
58,612    106,229    1412
58,602    106,233    1412
58,592    106,380    1410
58,582    106,206    1412
58,572    106,064    1414
58,562    106,380    1410
58,552    106,252    1412
58,542    106,436    1409
58,532    106,256    1412
58,522    106,128    1413
58,512    106,630    1407
58,502    106,463    1409
58,492    106,339    1411
58,482    106,284    1411
58,472    105,990    1415
58,462    106,367    1410
58,452    106,316    1411
58,442    106,348    1410
58,432    106,339    1411
58,422    106,169    1413
58,412    106,353    1410
58,402    106,261    1412
58,392    106,371    1410
58,382    106,316    1411
58,372    106,164    1413
58,362    106,311    1411
58,352    106,334    1411
58,342    106,344    1411
58,332    106,376    1410
58,322    106,114    1414
58,312    106,206    1412
58,302    106,486    1409
58,292    106,261    1412
58,282    106,523    1408
58,272    106,068    1414
58,262    106,068    1414
58,252    106,468    1409
58,242    106,146    1413
58,232    106,454    1409
58,222    106,325    1411
58,212    106,105    1414
58,202    106,450    1409
58,192    106,242    1412
58,182    106,403    1410
58,172    106,247    1412
58,162    106,238    1412
58,152    106,445    1409
58,142    106,210    1412
58,132    106,334    1411
58,122    106,509    1408
58,112    106,422    1409
58,102    106,574    1407
58,092    106,644    1407
58,082    106,261    1412
58,072    106,463    1409
58,062    106,750    1405
58,052    106,174    1413
58,042    106,344    1411
58,032    106,137    1413
58,022    106,311    1411
58,012    106,385    1410
58,002    106,265    1412
57,992    106,293    1411
57,982    106,178    1413
57,972    106,293    1411
57,962    106,450    1409
57,952    106,367    1410
57,942    106,105    1414
57,932    106,399    1410
57,922    106,219    1412
57,912    106,486    1409
57,902    106,431    1409
57,892    106,054    1414
57,882    106,523    1408
57,872    106,311    1411
57,862    106,316    1411
57,852    106,371    1410
57,842    105,940    1416
57,832    106,413    1410
57,822    106,445    1409
57,812    106,459    1409
57,802    106,385    1410
57,792    106,183    1413
57,782    106,353    1410
57,772    106,298    1411
57,762    106,560    1408
57,752    106,307    1411
57,742    106,206    1412
57,732    106,367    1410
57,722    106,293    1411
57,712    106,380    1410
57,702    106,417    1410
57,692    106,201    1412
57,682    106,256    1412
57,672    106,344    1411
57,662    106,219    1412
57,652    106,570    1408
57,642    106,169    1413
57,632    106,210    1412
57,622    106,509    1408
57,612    106,284    1411
57,602    106,197    1412
57,592    106,229    1412
57,582    106,265    1412
57,572    106,565    1408
57,562    106,206    1412
57,552    106,385    1410
57,542    106,206    1412
57,532    106,311    1411
57,522    106,528    1408
57,512    106,252    1412
57,502    106,417    1410
57,492    106,210    1412
57,482    106,380    1410
57,472    106,556    1408
57,462    106,261    1412
57,452    106,431    1409
57,442    106,899    1403
57,432    106,736    1405
57,422    106,792    1405
57,412    106,713    1406
57,402    106,913    1403
57,392    106,899    1403
57,382    106,732    1405
57,372    106,769    1405
57,362    106,787    1405
57,352    107,024    1402
57,342    106,288    1411
57,332    106,450    1409
57,322    106,183    1413
57,312    106,288    1411
57,302    106,528    1408
57,292    106,385    1410
57,282    106,390    1410
57,272    106,210    1412
57,262    106,284    1411
57,252    106,523    1408
57,242    106,537    1408
57,232    106,482    1409
57,222    106,491    1409
57,212    106,394    1410
57,202    106,667    1406
57,192    106,597    1407
57,182    106,519    1408
57,172    106,676    1406
57,162    106,486    1409
57,152    106,662    1406
57,142    106,755    1405
57,132    106,699    1406
57,122    106,810    1404
57,112    106,755    1405
57,102    107,132    1400
57,092    106,987    1402
57,082    106,894    1403
57,072    107,399    1397
57,062    107,150    1400
57,052    108,455    1383
57,042    109,587    1369
57,032    113,410    1323
57,022    109,397    1371
