Z-Pos[um]|R[MOhm]|I[pA]
59,077    106,311    1411
59,067    106,773    1405
59,057    106,662    1406
59,047    106,325    1411
59,037    106,256    1412
59,027    106,321    1411
59,017    106,602    1407
59,007    106,852    1404
58,997    106,750    1405
58,987    106,325    1411
58,977    106,620    1407
58,967    106,662    1406
58,957    106,505    1408
58,947    106,496    1409
58,937    106,238    1412
58,927    106,426    1409
58,917    106,528    1408
58,907    106,155    1413
58,897    106,307    1411
58,887    106,270    1411
58,877    107,525    1395
58,867    106,463    1409
58,857    106,293    1411
58,847    106,431    1409
58,837    106,325    1411
58,827    106,509    1408
58,817    106,588    1407
58,807    106,321    1411
58,797    106,514    1408
58,787    106,197    1412
58,777    106,505    1408
58,767    106,380    1410
58,757    106,137    1413
58,747    106,422    1409
58,737    106,265    1412
58,727    106,238    1412
58,717    106,293    1411
58,707    106,100    1414
58,697    106,486    1409
58,687    106,183    1413
58,677    106,371    1410
58,667    106,330    1411
58,657    106,059    1414
58,647    106,265    1412
58,637    106,519    1408
58,627    106,229    1412
58,617    106,371    1410
58,607    106,169    1413
58,597    106,105    1414
58,587    106,463    1409
58,577    106,769    1405
58,567    106,192    1413
58,557    106,463    1409
58,547    106,178    1413
58,537    106,459    1409
58,527    106,413    1410
58,517    106,229    1412
58,507    106,537    1408
58,497    106,293    1411
58,487    106,376    1410
58,477    106,413    1410
58,467    106,119    1414
58,457    106,408    1410
58,447    106,459    1409
58,437    106,325    1411
58,427    106,426    1409
58,417    106,077    1414
58,407    106,367    1410
58,397    106,422    1409
58,387    106,385    1410
58,377    106,270    1411
58,367    106,059    1414
58,357    106,325    1411
58,347    106,454    1409
58,337    106,330    1411
58,327    106,344    1411
58,317    106,334    1411
58,307    106,509    1408
58,297    106,713    1406
58,287    106,556    1408
58,277    106,403    1410
58,267    106,671    1406
58,257    106,496    1409
58,247    106,602    1407
58,237    106,367    1410
58,227    106,380    1410
58,217    106,537    1408
58,207    106,583    1407
58,197    106,325    1411
58,187    106,298    1411
58,177    106,252    1412
58,167    106,242    1412
58,157    106,325    1411
58,147    106,169    1413
58,137    106,440    1409
58,127    106,611    1407
58,117    106,334    1411
58,107    106,611    1407
58,097    106,491    1409
58,087    106,178    1413
58,077    106,500    1408
58,067    106,146    1413
58,057    106,426    1409
58,047    106,275    1411
58,037    106,123    1413
58,027    106,491    1409
58,017    106,270    1411
58,007    106,413    1410
57,997    106,307    1411
57,987    106,068    1414
57,977    106,436    1409
57,967    106,450    1409
57,957    106,233    1412
57,947    106,362    1410
57,937    106,224    1412
57,927    106,178    1413
57,917    106,473    1409
57,907    106,302    1411
57,897    106,279    1411
57,887    106,183    1413
57,877    106,219    1412
57,867    106,477    1409
57,857    106,353    1410
57,847    106,334    1411
57,837    106,201    1412
57,827    106,293    1411
57,817    106,436    1409
57,807    106,215    1412
57,797    106,334    1411
57,787    106,123    1413
57,777    106,380    1410
57,767    106,505    1408
57,757    106,192    1413
57,747    106,265    1412
57,737    106,357    1410
57,727    106,206    1412
57,717    106,704    1406
57,707    106,233    1412
57,697    106,087    1414
57,687    106,256    1412
57,677    106,256    1412
57,667    106,417    1410
57,657    106,348    1410
57,647    106,105    1414
57,637    106,463    1409
57,627    106,293    1411
57,617    106,436    1409
57,607    106,505    1408
57,597    106,178    1413
57,587    106,362    1410
57,577    106,233    1412
57,567    106,325    1411
57,557    106,468    1409
57,547    106,022    1415
57,537    106,422    1409
57,527    106,348    1410
57,517    106,403    1410
57,507    106,390    1410
57,497    106,279    1411
57,487    106,311    1411
57,477    106,500    1408
57,467    106,357    1410
57,457    106,288    1411
57,447    106,533    1408
57,437    106,311    1411
57,427    106,459    1409
57,417    106,325    1411
57,407    106,321    1411
57,397    106,551    1408
57,387    106,325    1411
57,377    106,491    1409
57,367    106,528    1408
57,357    106,380    1410
57,347    106,505    1408
57,337    106,275    1411
57,327    106,486    1409
57,317    106,620    1407
57,307    106,164    1413
57,297    106,477    1409
57,287    106,367    1410
57,277    106,574    1407
57,267    106,607    1407
57,257    106,542    1408
57,247    106,699    1406
57,237    106,722    1406
57,227    106,380    1410
57,217    106,570    1408
57,207    106,445    1409
57,197    106,611    1407
57,187    107,034    1401
57,177    106,657    1406
57,167    106,533    1408
57,157    106,718    1406
57,147    107,291    1398
57,137    107,230    1399
57,127    106,880    1403
57,117    107,305    1398
57,107    108,207    1386
57,097    107,122    1400
57,087    108,734    1380
57,077    116,127    1292
57,067    116,823    1284
