Z-Pos[um]|R[MOhm]|I[pA]
59,062    106,252    1412
59,052    106,913    1403
59,042    106,482    1409
59,032    106,685    1406
59,022    106,201    1412
59,012    106,473    1409
59,002    106,261    1412
58,992    106,459    1409
58,982    106,486    1409
58,972    106,261    1412
58,962    106,417    1410
58,952    106,219    1412
58,942    106,302    1411
58,932    106,509    1408
58,922    106,390    1410
58,912    106,275    1411
58,902    106,206    1412
58,892    106,344    1411
58,882    106,546    1408
58,872    106,385    1410
58,862    106,380    1410
58,852    106,367    1410
58,842    106,298    1411
58,832    106,486    1409
58,822    106,311    1411
58,812    106,302    1411
58,802    106,344    1411
58,792    106,602    1407
58,782    106,183    1413
58,772    106,390    1410
58,762    106,344    1411
58,752    106,242    1412
58,742    106,440    1409
58,732    106,514    1408
58,722    106,155    1413
58,712    106,367    1410
58,702    106,192    1413
58,692    106,422    1409
58,682    106,473    1409
58,672    106,201    1412
58,662    106,463    1409
58,652    106,275    1411
58,642    106,722    1406
58,632    106,325    1411
58,622    106,330    1411
58,612    106,413    1410
58,602    106,399    1410
58,592    106,325    1411
58,582    106,399    1410
58,572    106,068    1414
58,562    106,215    1412
58,552    106,588    1407
58,542    106,169    1413
58,532    106,307    1411
58,522    106,523    1408
58,512    106,187    1413
58,502    106,546    1408
58,492    106,201    1412
58,482    106,440    1409
58,472    106,316    1411
58,462    106,380    1410
58,452    106,620    1407
58,442    106,671    1406
58,432    106,718    1406
58,422    106,885    1403
58,412    106,936    1403
58,402    106,964    1402
58,392    106,574    1407
58,382    106,013    1415
58,372    106,473    1409
58,362    106,288    1411
58,352    106,270    1411
58,342    106,390    1410
58,332    106,229    1412
58,322    106,533    1408
58,312    106,219    1412
58,302    106,344    1411
58,292    106,344    1411
58,282    106,187    1413
58,272    106,519    1408
58,262    106,197    1412
58,252    106,293    1411
58,242    106,445    1409
58,232    106,574    1407
58,222    106,330    1411
58,212    106,353    1410
58,202    106,146    1413
58,192    106,509    1408
58,182    106,178    1413
58,172    106,348    1410
58,162    106,298    1411
58,152    106,593    1407
58,142    106,806    1404
58,132    106,229    1412
58,122    106,009    1415
58,112    106,288    1411
58,102    106,197    1412
58,092    106,426    1409
58,082    106,514    1408
58,072    106,187    1413
58,062    106,477    1409
58,052    106,288    1411
58,042    106,445    1409
58,032    106,380    1410
58,022    106,422    1409
58,012    106,769    1405
58,002    106,857    1404
57,992    106,824    1404
57,982    106,560    1408
57,972    106,783    1405
57,962    106,560    1408
57,952    106,247    1412
57,942    106,413    1410
57,932    106,256    1412
57,922    106,242    1412
57,912    106,588    1407
57,902    106,279    1411
57,892    106,316    1411
57,882    106,927    1403
57,872    106,334    1411
57,862    106,357    1410
57,852    106,344    1411
57,842    106,041    1415
57,832    106,376    1410
57,822    106,468    1409
57,812    106,408    1410
57,802    106,330    1411
57,792    106,137    1413
57,782    106,353    1410
57,772    106,367    1410
57,762    106,353    1410
57,752    106,496    1409
57,742    106,265    1412
57,732    106,482    1409
57,722    106,486    1409
57,712    106,399    1410
57,702    106,403    1410
57,692    106,224    1412
57,682    106,238    1412
57,672    106,436    1409
57,662    106,247    1412
57,652    106,174    1413
57,642    106,302    1411
57,632    106,206    1412
57,622    106,482    1409
57,612    106,537    1408
57,602    106,109    1414
57,592    106,459    1409
57,582    106,394    1410
57,572    106,699    1406
57,562    106,708    1406
57,552    106,426    1409
57,542    106,477    1409
57,532    106,829    1404
57,522    106,579    1407
57,512    106,588    1407
57,502    106,431    1409
57,492    106,219    1412
57,482    106,546    1408
57,472    106,537    1408
57,462    106,307    1411
57,452    106,500    1408
57,442    106,371    1410
57,432    106,496    1409
57,422    106,505    1408
57,412    106,215    1412
57,402    106,491    1409
57,392    106,482    1409
57,382    106,537    1408
57,372    106,339    1411
57,362    106,261    1412
57,352    106,450    1409
57,342    106,560    1408
57,332    106,616    1407
57,322    106,486    1409
57,312    106,252    1412
57,302    106,459    1409
57,292    106,560    1408
57,282    106,509    1408
57,272    106,459    1409
57,262    106,413    1410
57,252    106,376    1410
57,242    106,597    1407
57,232    106,445    1409
57,222    106,639    1407
57,212    106,533    1408
57,202    106,477    1409
57,192    106,941    1403
57,182    106,611    1407
57,172    106,745    1405
57,162    106,671    1406
57,152    106,815    1404
57,142    107,024    1402
57,132    106,690    1406
57,122    107,057    1401
57,112    107,001    1402
57,102    107,197    1399
57,092    107,244    1399
57,082    107,202    1399
57,072    112,188    1337
57,062    107,333    1398
57,052    115,153    1303
