Z-Pos[um]|R[MOhm]|I[pA]
59,037    106,270    1411
59,027    106,708    1406
59,017    106,321    1411
59,007    106,206    1412
58,997    106,482    1409
58,987    106,256    1412
58,977    106,403    1410
58,967    106,059    1414
58,957    106,546    1408
58,947    106,298    1411
58,937    106,330    1411
58,927    106,233    1412
58,917    106,109    1414
58,907    106,468    1409
58,897    106,242    1412
58,887    106,371    1410
58,877    106,376    1410
58,867    106,219    1412
58,857    106,505    1408
58,847    106,178    1413
58,837    106,316    1411
58,827    106,344    1411
58,817    106,197    1412
58,807    106,311    1411
58,797    106,151    1413
58,787    106,265    1412
58,777    106,445    1409
58,767    106,197    1412
58,757    106,496    1409
58,747    106,362    1410
58,737    106,146    1413
58,727    106,311    1411
58,717    106,311    1411
58,707    106,348    1410
58,697    106,413    1410
58,687    106,141    1413
58,677    106,565    1408
58,667    106,224    1412
58,657    106,307    1411
58,647    106,362    1410
58,637    106,082    1414
58,627    106,206    1412
58,617    106,298    1411
58,607    106,265    1412
58,597    106,339    1411
58,587    106,146    1413
58,577    106,302    1411
58,567    106,477    1409
58,557    106,316    1411
58,547    106,371    1410
58,537    106,123    1413
58,527    106,032    1415
58,517    106,509    1408
58,507    106,192    1413
58,497    106,215    1412
58,487    106,192    1413
58,477    106,174    1413
58,467    106,565    1408
58,457    106,210    1412
58,447    106,261    1412
58,437    106,233    1412
58,427    106,284    1411
58,417    106,509    1408
58,407    106,210    1412
58,397    106,169    1413
58,387    106,219    1412
58,377    106,270    1411
58,367    106,533    1408
58,357    106,353    1410
58,347    106,293    1411
58,337    106,252    1412
58,327    106,551    1408
58,317    106,644    1407
58,307    106,597    1407
58,297    106,256    1412
58,287    106,403    1410
58,277    106,334    1411
58,267    106,316    1411
58,257    106,445    1409
58,247    106,132    1413
58,237    106,348    1410
58,227    106,422    1409
58,217    106,229    1412
58,207    106,344    1411
58,197    106,105    1414
58,187    106,187    1413
58,177    106,321    1411
58,167    106,256    1412
58,157    106,279    1411
58,147    106,041    1415
58,137    106,077    1414
58,127    106,528    1408
58,117    106,293    1411
58,107    106,321    1411
58,097    106,648    1406
58,087    106,560    1408
58,077    106,519    1408
58,067    106,708    1406
58,057    106,128    1413
58,047    106,459    1409
58,037    106,279    1411
58,027    106,417    1410
58,017    106,422    1409
58,007    106,096    1414
57,997    106,390    1410
57,987    106,486    1409
57,977    106,436    1409
57,967    106,445    1409
57,957    106,560    1408
57,947    106,344    1411
57,937    106,759    1405
57,927    106,519    1408
57,917    106,486    1409
57,907    106,662    1406
57,897    106,570    1408
57,887    106,413    1410
57,877    106,477    1409
57,867    106,574    1407
57,857    106,648    1406
57,847    106,764    1405
57,837    106,783    1405
57,827    106,722    1406
57,817    106,773    1405
57,807    106,708    1406
57,797    106,857    1404
57,787    106,151    1413
57,777    106,344    1411
57,767    106,399    1410
57,757    106,344    1411
57,747    106,275    1411
57,737    106,206    1412
57,727    106,247    1412
57,717    106,440    1409
57,707    106,348    1410
57,697    106,219    1412
57,687    106,279    1411
57,677    106,242    1412
57,667    106,380    1410
57,657    106,477    1409
57,647    106,091    1414
57,637    106,302    1411
57,627    106,265    1412
57,617    106,371    1410
57,607    106,519    1408
57,597    106,192    1413
57,587    106,551    1408
57,577    106,330    1411
57,567    106,357    1410
57,557    106,417    1410
57,547    106,041    1415
57,537    106,339    1411
57,527    106,570    1408
57,517    106,509    1408
57,507    106,413    1410
57,497    106,183    1413
57,487    106,334    1411
57,477    107,295    1398
57,467    106,422    1409
57,457    106,519    1408
57,447    106,440    1409
57,437    106,284    1411
57,427    106,468    1409
57,417    106,408    1410
57,407    106,394    1410
57,397    106,298    1411
57,387    106,371    1410
57,377    106,500    1408
57,367    106,298    1411
57,357    106,385    1410
57,347    106,330    1411
57,337    106,371    1410
57,327    106,602    1407
57,317    106,477    1409
57,307    106,307    1411
57,297    106,376    1410
57,287    106,390    1410
57,277    106,593    1407
57,267    106,417    1410
57,257    106,256    1412
57,247    106,496    1409
57,237    106,509    1408
57,227    106,625    1407
57,217    106,560    1408
57,207    106,519    1408
57,197    106,546    1408
57,187    106,880    1403
57,177    106,625    1407
57,167    106,727    1405
57,157    106,473    1409
57,147    106,861    1404
57,137    106,899    1403
57,127    106,732    1405
57,117    106,889    1403
57,107    107,220    1399
57,097    106,973    1402
57,087    107,132    1400
57,077    108,150    1387
57,067    107,305    1398
57,057    108,031    1388
57,047    115,056    1304
