Z-Pos[um]|R[MOhm]|I[pA]
59,022    106,440    1409
59,012    107,127    1400
59,002    106,348    1410
58,992    106,403    1410
58,982    106,417    1410
58,972    106,192    1413
58,962    106,436    1409
58,952    106,344    1411
58,942    106,463    1409
58,932    106,491    1409
58,922    106,408    1410
58,912    106,468    1409
58,902    106,602    1407
58,892    106,160    1413
58,882    106,242    1412
58,872    106,146    1413
58,862    106,160    1413
58,852    106,704    1406
58,842    106,330    1411
58,832    106,293    1411
58,822    106,146    1413
58,812    106,348    1410
58,802    106,648    1406
58,792    106,183    1413
58,782    106,302    1411
58,772    106,151    1413
58,762    106,362    1410
58,752    106,593    1407
58,742    106,330    1411
58,732    106,330    1411
58,722    106,440    1409
58,712    106,339    1411
58,702    107,249    1399
58,692    106,445    1409
58,682    106,187    1413
58,672    106,284    1411
58,662    106,922    1403
58,652    106,662    1406
58,642    106,560    1408
58,632    107,034    1401
58,622    107,043    1401
58,612    106,880    1403
58,602    106,722    1406
58,592    106,875    1404
58,582    106,459    1409
58,572    106,403    1410
58,562    106,183    1413
58,552    106,311    1411
58,542    106,321    1411
58,532    106,403    1410
58,522    106,293    1411
58,512    106,288    1411
58,502    106,252    1412
58,492    106,288    1411
58,482    106,440    1409
58,472    106,344    1411
58,462    106,054    1414
58,452    106,325    1411
58,442    106,096    1414
58,432    106,459    1409
58,422    106,252    1412
58,412    106,164    1413
58,402    106,445    1409
58,392    106,256    1412
58,382    106,325    1411
58,372    106,348    1410
58,362    106,114    1414
58,352    106,367    1410
58,342    106,371    1410
58,332    106,270    1411
58,322    106,482    1409
58,312    106,197    1412
58,302    106,224    1412
58,292    106,611    1407
58,282    106,242    1412
58,272    106,178    1413
58,262    106,371    1410
58,252    106,293    1411
58,242    106,459    1409
58,232    106,325    1411
58,222    106,302    1411
58,212    106,657    1406
58,202    106,265    1412
58,192    106,362    1410
58,182    106,256    1412
58,172    106,229    1412
58,162    106,353    1410
58,152    106,279    1411
58,142    106,459    1409
58,132    106,468    1409
58,122    106,192    1413
58,112    106,344    1411
58,102    106,450    1409
58,092    106,348    1410
58,082    106,390    1410
58,072    106,242    1412
58,062    106,284    1411
58,052    106,574    1407
58,042    106,385    1410
58,032    106,380    1410
58,022    106,593    1407
58,012    106,519    1408
58,002    106,316    1411
57,992    106,348    1410
57,982    106,169    1413
57,972    106,247    1412
57,962    106,408    1410
57,952    106,178    1413
57,942    106,242    1412
57,932    106,155    1413
57,922    106,339    1411
57,912    106,620    1407
57,902    106,233    1412
57,892    106,371    1410
57,882    106,192    1413
57,872    106,565    1408
57,862    106,533    1408
57,852    106,256    1412
57,842    106,321    1411
57,832    106,197    1412
57,822    106,215    1412
57,812    106,334    1411
57,802    106,096    1414
57,792    106,394    1410
57,782    106,426    1409
57,772    106,413    1410
57,762    106,141    1413
57,752    106,187    1413
57,742    106,399    1410
57,732    106,247    1412
57,722    106,367    1410
57,712    106,206    1412
57,702    106,187    1413
57,692    106,408    1410
57,682    106,298    1411
57,672    106,339    1411
57,662    106,450    1409
57,652    106,077    1414
57,642    106,459    1409
57,632    106,362    1410
57,622    106,445    1409
57,612    106,579    1407
57,602    106,265    1412
57,592    106,279    1411
57,582    106,224    1412
57,572    106,302    1411
57,562    106,426    1409
57,552    106,270    1411
57,542    106,362    1410
57,532    106,482    1409
57,522    106,169    1413
57,512    106,408    1410
57,502    106,178    1413
57,492    106,408    1410
57,482    106,473    1409
57,472    106,371    1410
57,462    106,408    1410
57,452    106,307    1411
57,442    106,445    1409
57,432    106,380    1410
57,422    106,339    1411
57,412    106,417    1410
57,402    106,141    1413
57,392    106,252    1412
57,382    106,450    1409
57,372    106,399    1410
57,362    106,371    1410
57,352    106,408    1410
57,342    106,311    1411
57,332    106,657    1406
57,322    106,408    1410
57,312    106,298    1411
57,302    106,463    1409
57,292    106,574    1407
57,282    106,764    1405
57,272    106,931    1403
57,262    106,413    1410
57,252    106,459    1409
57,242    106,676    1406
57,232    106,371    1410
57,222    106,551    1408
57,212    106,210    1412
57,202    106,486    1409
57,192    106,736    1405
57,182    106,440    1409
57,172    106,514    1408
57,162    106,583    1407
57,152    106,542    1408
57,142    106,936    1403
57,132    106,755    1405
57,122    106,927    1403
57,112    106,653    1406
57,102    107,525    1395
57,092    108,604    1381
57,082    106,899    1403
57,072    106,838    1404
57,062    135,204    1109
57,052    107,436    1396
57,042    140,998    1064
57,032    123,703    1213
