Z-Pos[um]|R[MOhm]|I[pA]
59,067    106,206    1412
59,057    106,694    1406
59,047    106,639    1407
59,037    106,261    1412
59,027    106,602    1407
59,017    106,174    1413
59,007    106,339    1411
58,997    106,533    1408
58,987    106,252    1412
58,977    106,514    1408
58,967    106,769    1405
58,957    106,815    1404
58,947    106,927    1403
58,937    106,755    1405
58,927    106,783    1405
58,917    106,667    1406
58,907    106,620    1407
58,897    106,426    1409
58,887    106,119    1414
58,877    106,426    1409
58,867    106,537    1408
58,857    106,440    1409
58,847    106,357    1410
58,837    106,187    1413
58,827    106,298    1411
58,817    106,560    1408
58,807    106,132    1413
58,797    106,431    1409
58,787    106,229    1412
58,777    106,431    1409
58,767    106,533    1408
58,757    106,339    1411
58,747    106,178    1413
58,737    106,284    1411
58,727    106,275    1411
58,717    106,514    1408
58,707    106,657    1406
58,697    106,160    1413
58,687    106,450    1409
58,677    106,348    1410
58,667    106,362    1410
58,657    106,505    1408
58,647    106,164    1413
58,637    106,362    1410
58,627    106,491    1409
58,617    106,426    1409
58,607    106,450    1409
58,597    106,201    1412
58,587    106,422    1409
58,577    106,542    1408
58,567    106,261    1412
58,557    106,459    1409
58,547    106,302    1411
58,537    106,385    1410
58,527    106,542    1408
58,517    106,344    1411
58,507    106,505    1408
58,497    106,210    1412
58,487    106,450    1409
58,477    106,422    1409
58,467    106,114    1414
58,457    106,339    1411
58,447    106,215    1412
58,437    106,238    1412
58,427    106,514    1408
58,417    106,298    1411
58,407    106,399    1410
58,397    106,353    1410
58,387    106,219    1412
58,377    106,565    1408
58,367    106,339    1411
58,357    106,252    1412
58,347    106,321    1411
58,337    106,334    1411
58,327    106,537    1408
58,317    106,463    1409
58,307    106,178    1413
58,297    106,528    1408
58,287    106,261    1412
58,277    106,399    1410
58,267    106,505    1408
58,257    105,977    1415
58,247    106,390    1410
58,237    106,528    1408
58,227    106,625    1407
58,217    106,376    1410
58,207    106,164    1413
58,197    106,325    1411
58,187    106,408    1410
58,177    106,394    1410
58,167    106,417    1410
58,157    106,151    1413
58,147    106,468    1409
58,137    106,509    1408
58,127    106,426    1409
58,117    106,307    1411
58,107    106,197    1412
58,097    106,321    1411
58,087    106,417    1410
58,077    106,454    1409
58,067    106,671    1406
58,057    106,307    1411
58,047    106,160    1413
58,037    106,546    1408
58,027    106,270    1411
58,017    106,422    1409
58,007    106,491    1409
57,997    106,718    1406
57,987    106,486    1409
57,977    106,169    1413
57,967    106,560    1408
57,957    106,321    1411
57,947    106,468    1409
57,937    106,468    1409
57,927    106,064    1414
57,917    106,514    1408
57,907    106,463    1409
57,897    106,579    1407
57,887    106,408    1410
57,877    106,013    1415
57,867    106,486    1409
57,857    106,570    1408
57,847    106,445    1409
57,837    106,339    1411
57,827    106,141    1413
57,817    106,380    1410
57,807    106,486    1409
57,797    106,357    1410
57,787    106,496    1409
57,777    106,288    1411
57,767    106,141    1413
57,757    106,496    1409
57,747    106,279    1411
57,737    106,293    1411
57,727    106,137    1413
57,717    106,302    1411
57,707    107,062    1401
57,697    106,597    1407
57,687    106,279    1411
57,677    106,519    1408
57,667    106,302    1411
57,657    106,496    1409
57,647    106,408    1410
57,637    106,146    1413
57,627    106,440    1409
57,617    106,570    1408
57,607    106,357    1410
57,597    106,579    1407
57,587    106,570    1408
57,577    106,570    1408
57,567    106,745    1405
57,557    106,560    1408
57,547    106,288    1411
57,537    106,459    1409
57,527    106,275    1411
57,517    106,468    1409
57,507    106,334    1411
57,497    106,022    1415
57,487    106,468    1409
57,477    106,546    1408
57,467    106,445    1409
57,457    106,385    1410
57,447    106,027    1415
57,437    106,491    1409
57,427    106,445    1409
57,417    106,523    1408
57,407    106,353    1410
57,397    106,201    1412
57,387    106,459    1409
57,377    106,528    1408
57,367    106,450    1409
57,357    106,454    1409
57,347    106,302    1411
57,337    106,394    1410
57,327    106,454    1409
57,317    106,293    1411
57,307    106,551    1408
57,297    106,242    1412
57,287    106,256    1412
57,277    106,704    1406
57,267    106,496    1409
57,257    106,491    1409
57,247    106,330    1411
57,237    106,229    1412
57,227    106,871    1404
57,217    106,537    1408
57,207    106,894    1403
57,197    107,127    1400
57,187    107,277    1398
57,177    107,263    1398
57,167    107,104    1401
57,157    107,057    1401
57,147    107,728    1392
57,137    108,012    1389
57,127    106,528    1408
57,117    107,010    1402
57,107    109,013    1376
57,097    107,099    1401
57,087    107,272    1398
57,077    109,665    1368
57,067    107,794    1392
57,057    119,388    1256
57,047    180,839    829
