Z-Pos[um]|R[MOhm]|I[pA]
59,049    106,206    1412
59,039    107,094    1401
59,029    106,261    1412
59,019    106,137    1413
59,009    106,371    1410
58,999    106,256    1412
58,989    106,417    1410
58,979    106,128    1413
58,969    106,321    1411
58,959    106,302    1411
58,949    106,256    1412
58,939    106,459    1409
58,929    106,197    1412
58,919    106,252    1412
58,909    106,362    1410
58,899    106,206    1412
58,889    106,546    1408
58,879    106,321    1411
58,869    106,206    1412
58,859    106,394    1410
58,849    106,607    1407
58,839    106,593    1407
58,829    106,505    1408
58,819    106,362    1410
58,809    106,422    1409
58,799    106,815    1404
58,789    106,509    1408
58,779    106,265    1412
58,769    106,210    1412
58,759    106,288    1411
58,749    106,445    1409
58,739    106,265    1412
58,729    106,371    1410
58,719    106,219    1412
58,709    106,206    1412
58,699    106,473    1409
58,689    106,321    1411
58,679    106,109    1414
58,669    106,371    1410
58,659    106,357    1410
58,649    106,298    1411
58,639    106,491    1409
58,629    105,972    1415
58,619    106,450    1409
58,609    106,426    1409
58,599    106,394    1410
58,589    106,252    1412
58,579    106,174    1413
58,569    106,344    1411
58,559    106,417    1410
58,549    106,426    1409
58,539    106,197    1412
58,529    106,100    1414
58,519    106,321    1411
58,509    106,261    1412
58,499    106,380    1410
58,489    106,376    1410
58,479    106,050    1414
58,469    106,201    1412
58,459    106,431    1409
58,449    106,247    1412
58,439    106,376    1410
58,429    106,141    1413
58,419    106,215    1412
58,409    106,288    1411
58,399    106,119    1414
58,389    106,436    1409
58,379    106,114    1414
58,369    106,100    1414
58,359    106,348    1410
58,349    106,229    1412
58,339    106,357    1410
58,329    106,362    1410
58,319    106,574    1407
58,309    106,298    1411
58,299    106,256    1412
58,289    106,219    1412
58,279    106,348    1410
58,269    106,426    1409
58,259    106,500    1408
58,249    106,353    1410
58,239    106,662    1406
58,229    106,583    1407
58,219    106,574    1407
58,209    106,570    1408
58,199    106,505    1408
58,189    106,634    1407
58,179    106,602    1407
58,169    106,482    1409
58,159    106,385    1410
58,149    106,357    1410
58,139    106,109    1414
58,129    106,371    1410
58,119    106,445    1409
58,109    106,128    1413
58,099    106,588    1407
58,089    106,574    1407
58,079    106,339    1411
58,069    106,371    1410
58,059    106,519    1408
58,049    106,399    1410
58,039    106,699    1406
58,029    106,648    1406
58,019    106,436    1409
58,009    106,602    1407
57,999    106,829    1404
57,989    106,385    1410
57,979    106,390    1410
57,969    106,519    1408
57,959    106,834    1404
57,949    106,671    1406
57,939    106,843    1404
57,929    106,556    1408
57,919    106,736    1405
57,909    106,824    1404
57,899    106,908    1403
57,889    106,500    1408
57,879    106,519    1408
57,869    106,741    1405
57,859    106,806    1404
57,849    106,528    1408
57,839    106,741    1405
57,829    106,852    1404
57,819    106,899    1403
57,809    106,630    1407
57,799    106,722    1406
57,789    106,913    1403
57,779    106,801    1404
57,769    106,486    1409
57,759    106,261    1412
57,749    106,519    1408
57,739    106,242    1412
57,729    106,109    1414
57,719    106,174    1413
57,709    106,087    1414
57,699    106,403    1410
57,689    106,229    1412
57,679    106,155    1413
57,669    106,270    1411
57,659    106,440    1409
57,649    106,500    1408
57,639    106,362    1410
57,629    106,174    1413
57,619    106,565    1408
57,609    106,685    1406
57,599    106,394    1410
57,589    106,528    1408
57,579    106,174    1413
57,569    106,275    1411
57,559    106,247    1412
57,549    106,486    1409
57,539    106,371    1410
57,529    106,050    1414
57,519    106,353    1410
57,509    106,644    1407
57,499    106,376    1410
57,489    106,288    1411
57,479    106,302    1411
57,469    106,482    1409
57,459    106,468    1409
57,449    106,219    1412
57,439    106,454    1409
57,429    106,174    1413
57,419    106,348    1410
57,409    106,468    1409
57,399    106,362    1410
57,389    106,473    1409
57,379    106,284    1411
57,369    106,473    1409
57,359    106,783    1405
57,349    106,787    1405
57,339    106,311    1411
57,329    106,523    1408
57,319    106,252    1412
57,309    106,523    1408
57,299    106,450    1409
57,289    106,229    1412
57,279    106,570    1408
57,269    106,426    1409
57,259    106,908    1403
57,249    106,713    1406
57,239    106,992    1402
57,229    106,889    1403
57,219    107,048    1401
57,209    107,258    1398
57,199    106,667    1406
57,189    106,413    1410
57,179    106,871    1404
57,169    106,713    1406
57,159    106,593    1407
57,149    106,764    1405
57,139    106,950    1403
57,129    108,183    1387
57,119    107,366    1397
57,109    107,094    1401
57,099    107,220    1399
57,089    107,681    1393
57,079    107,913    1390
57,069    107,723    1392
57,059    107,300    1398
57,049    112,662    1331
57,039    113,207    1325
