Z-Pos[um]|R[MOhm]|I[pA]
59,011    106,284    1411
59,001    107,174    1400
58,991    106,801    1404
58,981    106,459    1409
58,971    106,620    1407
58,961    106,903    1403
58,951    106,514    1408
58,941    106,468    1409
58,931    106,330    1411
58,921    106,233    1412
58,911    106,533    1408
58,901    106,473    1409
58,891    106,242    1412
58,881    106,376    1410
58,871    106,151    1413
58,861    106,579    1407
58,851    106,417    1410
58,841    106,385    1410
58,831    106,450    1409
58,821    106,316    1411
58,811    106,275    1411
58,801    106,413    1410
58,791    106,252    1412
58,781    106,533    1408
58,771    106,413    1410
58,761    106,362    1410
58,751    106,473    1409
58,741    106,174    1413
58,731    106,330    1411
58,721    106,436    1409
58,711    106,357    1410
58,701    106,256    1412
58,691    106,155    1413
58,681    106,284    1411
58,671    106,482    1409
58,661    106,353    1410
58,651    106,330    1411
58,641    106,325    1411
58,631    106,298    1411
58,621    106,588    1407
58,611    106,353    1410
58,601    106,450    1409
58,591    106,247    1412
58,581    106,238    1412
58,571    106,459    1409
58,561    106,210    1412
58,551    106,321    1411
58,541    106,307    1411
58,531    106,270    1411
58,521    106,556    1408
58,511    106,210    1412
58,501    106,298    1411
58,491    106,229    1412
58,481    106,325    1411
58,471    106,699    1406
58,461    106,394    1410
58,451    106,233    1412
58,441    106,256    1412
58,431    106,403    1410
58,421    106,468    1409
58,411    106,293    1411
58,401    106,210    1412
58,391    106,367    1410
58,381    106,155    1413
58,371    106,500    1408
58,361    106,560    1408
58,351    106,137    1413
58,341    106,422    1409
58,331    106,321    1411
58,321    106,486    1409
58,311    106,473    1409
58,301    106,087    1414
58,291    106,334    1411
58,281    106,233    1412
58,271    106,413    1410
58,261    106,380    1410
58,251    106,045    1414
58,241    106,496    1409
58,231    106,224    1412
58,221    106,399    1410
58,211    106,399    1410
58,201    106,261    1412
58,191    106,505    1408
58,181    106,403    1410
58,171    106,348    1410
58,161    106,399    1410
58,151    106,224    1412
58,141    106,431    1409
58,131    106,500    1408
58,121    106,311    1411
58,111    106,593    1407
58,101    106,164    1413
58,091    106,256    1412
58,081    106,565    1408
58,071    106,256    1412
58,061    106,408    1410
58,051    106,252    1412
58,041    106,178    1413
58,031    106,473    1409
58,021    106,279    1411
58,011    106,399    1410
58,001    106,256    1412
57,991    106,132    1413
57,981    106,473    1409
57,971    106,284    1411
57,961    106,440    1409
57,951    106,164    1413
57,941    106,279    1411
57,931    106,570    1408
57,921    106,288    1411
57,911    106,316    1411
57,901    106,403    1410
57,891    106,403    1410
57,881    106,463    1409
57,871    106,265    1412
57,861    106,270    1411
57,851    106,509    1408
57,841    106,390    1410
57,831    106,385    1410
57,821    106,436    1409
57,811    106,105    1414
57,801    106,454    1409
57,791    106,473    1409
57,781    106,519    1408
57,771    106,302    1411
57,761    106,357    1410
57,751    106,367    1410
57,741    106,334    1411
57,731    106,486    1409
57,721    106,311    1411
57,711    106,169    1413
57,701    106,265    1412
57,691    106,741    1405
57,681    106,769    1405
57,671    106,505    1408
57,661    106,482    1409
57,651    106,293    1411
57,641    106,496    1409
57,631    106,607    1407
57,621    106,155    1413
57,611    106,431    1409
57,601    106,238    1412
57,591    106,454    1409
57,581    106,486    1409
57,571    106,256    1412
57,561    106,399    1410
57,551    106,353    1410
57,541    106,298    1411
57,531    106,450    1409
57,521    106,206    1412
57,511    106,514    1408
57,501    106,275    1411
57,491    106,380    1410
57,481    106,560    1408
57,471    106,459    1409
57,461    106,694    1406
57,451    106,764    1405
57,441    106,565    1408
57,431    106,279    1411
57,421    106,390    1410
57,411    106,339    1411
57,401    106,491    1409
57,391    106,219    1412
57,381    106,302    1411
57,371    106,528    1408
57,361    106,436    1409
57,351    106,473    1409
57,341    106,238    1412
57,331    106,242    1412
57,321    106,565    1408
57,311    106,408    1410
57,301    106,408    1410
57,291    106,445    1409
57,281    106,436    1409
57,271    106,662    1406
57,261    107,048    1401
57,251    106,450    1409
57,241    106,514    1408
57,231    106,773    1405
57,221    106,593    1407
57,211    106,815    1404
57,201    106,385    1410
57,191    106,477    1409
57,181    107,071    1401
57,171    106,755    1405
57,161    106,694    1406
57,151    107,010    1402
57,141    106,778    1405
57,131    107,436    1396
57,121    107,001    1402
57,111    106,880    1403
57,101    106,852    1404
57,091    107,648    1393
57,081    106,917    1403
57,071    107,300    1398
57,061    113,134    1326
57,051    107,568    1394
57,041    131,831    1138
57,031    108,098    1388
57,021    204,391    734
