Z-Pos[um]|R[MOhm]|I[pA]
59,043    106,413    1410
59,033    106,848    1404
59,023    106,676    1406
59,013    106,408    1410
59,003    106,417    1410
58,993    106,353    1410
58,983    106,399    1410
58,973    106,597    1407
58,963    106,362    1410
58,953    106,431    1409
58,943    106,422    1409
58,933    106,523    1408
58,923    106,436    1409
58,913    106,394    1410
58,903    106,399    1410
58,893    106,302    1411
58,883    106,648    1406
58,873    106,330    1411
58,863    106,206    1412
58,853    106,509    1408
58,843    106,169    1413
58,833    106,417    1410
58,823    106,417    1410
58,813    106,261    1412
58,803    106,413    1410
58,793    106,385    1410
58,783    106,620    1407
58,773    106,311    1411
58,763    106,288    1411
58,753    106,436    1409
58,743    106,330    1411
58,733    106,339    1411
58,723    106,413    1410
58,713    106,348    1410
58,703    106,523    1408
58,693    106,477    1409
58,683    106,486    1409
58,673    106,468    1409
58,663    106,583    1407
58,653    106,275    1411
58,643    106,894    1403
58,633    106,357    1410
58,623    106,096    1414
58,613    106,857    1404
58,603    106,413    1410
58,593    106,390    1410
58,583    106,357    1410
58,573    106,160    1413
58,563    106,146    1413
58,553    106,477    1409
58,543    106,330    1411
58,533    106,224    1412
58,523    106,279    1411
58,513    106,390    1410
58,503    106,597    1407
58,493    106,197    1412
58,483    106,293    1411
58,473    106,229    1412
58,463    106,445    1409
58,453    106,597    1407
58,443    106,344    1411
58,433    106,215    1412
58,423    106,197    1412
58,413    106,344    1411
58,403    106,505    1408
58,393    106,302    1411
58,383    106,436    1409
58,373    106,861    1404
58,363    106,941    1403
58,353    106,713    1406
58,343    106,275    1411
58,333    106,114    1414
58,323    106,256    1412
58,313    106,505    1408
58,303    106,302    1411
58,293    106,201    1412
58,283    106,413    1410
58,273    106,316    1411
58,263    106,560    1408
58,253    106,265    1412
58,243    106,307    1411
58,233    106,486    1409
58,223    106,284    1411
58,213    106,330    1411
58,203    106,192    1413
58,193    106,330    1411
58,183    106,556    1408
58,173    106,311    1411
58,163    106,509    1408
58,153    106,408    1410
58,143    105,968    1416
58,133    106,505    1408
58,123    106,270    1411
58,113    106,146    1413
58,103    106,431    1409
58,093    106,206    1412
58,083    106,482    1409
58,073    106,219    1412
58,063    106,307    1411
58,053    106,325    1411
58,043    106,054    1414
58,033    106,348    1410
58,023    106,408    1410
58,013    106,270    1411
58,003    106,426    1409
57,993    106,247    1412
57,983    106,431    1409
57,973    106,357    1410
57,963    106,132    1413
57,953    106,463    1409
57,943    106,284    1411
57,933    106,450    1409
57,923    106,848    1404
57,913    106,477    1409
57,903    106,270    1411
57,893    106,750    1405
57,883    106,533    1408
57,873    106,537    1408
57,863    106,690    1406
57,853    106,551    1408
57,843    106,417    1410
57,833    106,616    1407
57,823    106,620    1407
57,813    106,417    1410
57,803    106,699    1406
57,793    106,454    1409
57,783    106,542    1408
57,773    106,574    1407
57,763    106,445    1409
57,753    106,233    1412
57,743    106,463    1409
57,733    106,307    1411
57,723    106,473    1409
57,713    106,238    1412
57,703    106,330    1411
57,693    106,482    1409
57,683    106,431    1409
57,673    106,174    1413
57,663    106,436    1409
57,653    106,316    1411
57,643    106,537    1408
57,633    106,486    1409
57,623    106,073    1414
57,613    106,468    1409
57,603    106,261    1412
57,593    106,436    1409
57,583    106,242    1412
57,573    106,275    1411
57,563    106,491    1409
57,553    106,270    1411
57,543    106,500    1408
57,533    106,288    1411
57,523    106,261    1412
57,513    106,440    1409
57,503    106,385    1410
57,493    106,579    1407
57,483    106,371    1410
57,473    106,357    1410
57,463    106,279    1411
57,453    106,523    1408
57,443    106,477    1409
57,433    106,114    1414
57,423    106,676    1406
57,413    106,426    1409
57,403    106,408    1410
57,393    106,325    1411
57,383    106,288    1411
57,373    106,491    1409
57,363    106,500    1408
57,353    106,316    1411
57,343    106,602    1407
57,333    106,275    1411
57,323    106,376    1410
57,313    106,685    1406
57,303    106,454    1409
57,293    106,399    1410
57,283    106,542    1408
57,273    106,616    1407
57,263    106,657    1406
57,253    106,357    1410
57,243    106,523    1408
57,233    106,533    1408
57,223    106,450    1409
57,213    106,732    1405
57,203    106,565    1408
57,193    106,454    1409
57,183    106,546    1408
57,173    106,708    1406
57,163    106,806    1404
57,153    106,903    1403
57,143    106,593    1407
57,133    107,146    1400
57,123    106,968    1402
57,113    107,010    1402
57,103    107,263    1398
57,093    107,094    1401
57,083    107,511    1395
57,073    107,352    1397
57,063    107,856    1391
57,053    116,623    1286
57,043    109,709    1367
