Z-Pos[um]|R[MOhm]|I[pA]
59,061    106,298    1411
59,051    106,718    1406
59,041    106,694    1406
59,031    106,583    1407
59,021    106,330    1411
59,011    106,422    1409
59,001    106,376    1410
58,991    106,685    1406
58,981    106,477    1409
58,971    106,371    1410
58,961    106,704    1406
58,951    107,010    1402
58,941    106,996    1402
58,931    106,662    1406
58,921    107,024    1402
58,911    107,127    1400
58,901    106,722    1406
58,891    106,657    1406
58,881    106,694    1406
58,871    107,052    1401
58,861    106,959    1402
58,851    106,574    1407
58,841    106,648    1406
58,831    106,593    1407
58,821    106,348    1410
58,811    106,477    1409
58,801    106,399    1410
58,791    106,298    1411
58,781    106,602    1407
58,771    106,302    1411
58,761    106,311    1411
58,751    106,288    1411
58,741    106,509    1408
58,731    106,500    1408
58,721    106,270    1411
58,711    106,422    1409
58,701    106,178    1413
58,691    106,634    1407
58,681    106,528    1408
58,671    106,141    1413
58,661    106,403    1410
58,651    106,334    1411
58,641    106,408    1410
58,631    106,339    1411
58,621    106,087    1414
58,611    106,482    1409
58,601    106,247    1412
58,591    106,362    1410
58,581    106,376    1410
58,571    106,219    1412
58,561    106,348    1410
58,551    106,648    1406
58,541    106,426    1409
58,531    106,482    1409
58,521    106,201    1412
58,511    106,109    1414
58,501    106,597    1407
58,491    106,215    1412
58,481    106,431    1409
58,471    106,630    1407
58,461    106,316    1411
58,451    106,459    1409
58,441    106,486    1409
58,431    106,077    1414
58,421    106,390    1410
58,411    106,325    1411
58,401    106,588    1407
58,391    106,348    1410
58,381    106,151    1413
58,371    106,242    1412
58,361    106,685    1406
58,351    106,192    1413
58,341    106,224    1412
58,331    106,206    1412
58,321    106,242    1412
58,311    106,644    1407
58,301    106,187    1413
58,291    106,371    1410
58,281    106,206    1412
58,271    106,270    1411
58,261    106,528    1408
58,251    106,330    1411
58,241    106,380    1410
58,231    106,197    1412
58,221    106,380    1410
58,211    106,546    1408
58,201    106,394    1410
58,191    106,431    1409
58,181    106,279    1411
58,171    106,174    1413
58,161    106,551    1408
58,151    106,394    1410
58,141    106,376    1410
58,131    106,357    1410
58,121    106,169    1413
58,111    106,509    1408
58,101    106,399    1410
58,091    106,146    1413
58,081    106,445    1409
58,071    106,477    1409
58,061    106,334    1411
58,051    106,440    1409
58,041    106,077    1414
58,031    106,371    1410
58,021    106,436    1409
58,011    106,357    1410
58,001    106,288    1411
57,991    106,091    1414
57,981    106,353    1410
57,971    106,473    1409
57,961    106,348    1410
57,951    106,385    1410
57,941    106,151    1413
57,931    106,219    1412
57,921    106,468    1409
57,911    106,426    1409
57,901    106,385    1410
57,891    106,224    1412
57,881    106,252    1412
57,871    106,496    1409
57,861    106,357    1410
57,851    106,367    1410
57,841    106,256    1412
57,831    106,417    1410
57,821    106,459    1409
57,811    106,210    1412
57,801    106,450    1409
57,791    106,330    1411
57,781    106,380    1410
57,771    106,551    1408
57,761    106,247    1412
57,751    106,348    1410
57,741    106,298    1411
57,731    106,302    1411
57,721    106,570    1408
57,711    106,298    1411
57,701    106,357    1410
57,691    106,390    1410
57,681    106,238    1412
57,671    106,463    1409
57,661    106,519    1408
57,651    106,178    1413
57,641    106,486    1409
57,631    106,390    1410
57,621    106,523    1408
57,611    106,528    1408
57,601    106,279    1411
57,591    106,514    1408
57,581    106,307    1411
57,571    106,616    1407
57,561    106,620    1407
57,551    106,284    1411
57,541    106,565    1408
57,531    106,376    1410
57,521    106,339    1411
57,511    106,514    1408
57,501    106,197    1412
57,491    106,450    1409
57,481    106,270    1411
57,471    106,463    1409
57,461    106,519    1408
57,451    106,160    1413
57,441    106,523    1408
57,431    106,482    1409
57,421    106,316    1411
57,411    106,500    1408
57,401    106,224    1412
57,391    106,316    1411
57,381    106,704    1406
57,371    106,417    1410
57,361    106,509    1408
57,351    106,362    1410
57,341    106,307    1411
57,331    106,602    1407
57,321    106,394    1410
57,311    106,616    1407
57,301    106,630    1407
57,291    106,436    1409
57,281    106,764    1405
57,271    106,454    1409
57,261    106,321    1411
57,251    106,607    1407
57,241    106,727    1405
57,231    106,597    1407
57,221    106,778    1405
57,211    106,597    1407
57,201    106,657    1406
57,191    106,848    1404
57,181    106,662    1406
57,171    106,913    1403
57,161    106,565    1408
57,151    106,824    1404
57,141    107,090    1401
57,131    106,787    1405
57,121    107,094    1401
57,111    107,071    1401
57,101    107,113    1400
57,091    108,883    1378
57,081    108,816    1378
57,071    107,558    1395
57,061    109,300    1372
